Ti-47(n,tot) ENDFB-8.0
Energy(eV) XS(b)
1.00000E-05 109.116
1.03125E-05 107.455
1.06250E-05 105.868
1.09375E-05 104.349
1.12500E-05 102.895
1.15625E-05 101.499
1.18750E-05 100.160
1.21875E-05 98.8717
1.25000E-05 97.6325
1.28125E-05 96.4390
1.31250E-05 95.2884
1.34375E-05 94.1783
1.37500E-05 93.1062
1.43750E-05 91.0681
1.50000E-05 89.1590
1.56250E-05 87.3657
1.62500E-05 85.6771
1.68750E-05 84.0833
1.75000E-05 82.5758
1.81250E-05 81.1471
1.87500E-05 79.7906
1.93750E-05 78.5004
2.00000E-05 77.2712
2.09375E-05 75.5319
2.18750E-05 73.9059
2.28125E-05 72.3814
2.37500E-05 70.9483
2.46875E-05 69.5978
2.56250E-05 68.3222
2.65625E-05 67.1150
2.75000E-05 65.9702
2.84375E-05 64.8826
2.93750E-05 63.8477
3.03125E-05 62.8613
3.12500E-05 61.9198
3.21875E-05 61.0198
3.31250E-05 60.1584
3.40625E-05 59.3329
3.50000E-05 58.5410
3.59375E-05 57.7803
3.68750E-05 57.0489
3.78125E-05 56.3450
3.87500E-05 55.6669
3.96875E-05 55.0131
4.06250E-05 54.3821
4.25000E-05 53.1835
4.43750E-05 52.0621
4.62500E-05 51.0099
4.81250E-05 50.0200
5.00000E-05 49.0866
5.15625E-05 48.3481
5.31250E-05 47.6427
5.46875E-05 46.9678
5.62500E-05 46.3214
5.78125E-05 45.7016
5.93750E-05 45.1064
6.09375E-05 44.5345
6.25000E-05 43.9843
6.40625E-05 43.4544
6.56250E-05 42.9437
6.71875E-05 42.4510
6.87500E-05 41.9753
7.18750E-05 41.0712
7.50000E-05 40.2246
7.81250E-05 39.4296
8.12500E-05 38.6813
8.43750E-05 37.9752
8.75000E-05 37.3076
9.06250E-05 36.6752
9.37500E-05 36.0748
9.68750E-05 35.5040
0.000100000 34.9604
0.000103125 34.4420
0.000106250 33.9467
0.000109375 33.4731
0.000112500 33.0195
0.000115625 32.5847
0.000118750 32.1672
0.000121875 31.7661
0.000125000 31.3804
0.000128125 31.0089
0.000131250 30.6510
0.000134375 30.3057
0.000137500 29.9725
0.000143750 29.3392
0.000150000 28.7465
0.000156250 28.1901
0.000162500 27.6666
0.000168750 27.1728
0.000175000 26.7061
0.000181250 26.2641
0.000187500 25.8448
0.000193750 25.4462
0.000200000 25.0667
0.000209375 24.5302
0.000218750 24.0291
0.000228125 23.5598
0.000237500 23.1191
0.000246875 22.7042
0.000256250 22.3127
0.000265625 21.9425
0.000275000 21.5918
0.000284375 21.2590
0.000293750 20.9426
0.000303125 20.6413
0.000312500 20.3539
0.000321875 20.0795
0.000331250 19.8171
0.000340625 19.5659
0.000350000 19.3251
0.000359375 19.0940
0.000368750 18.8720
0.000378125 18.6585
0.000387500 18.4530
0.000396875 18.2551
0.000406250 18.0642
0.000425000 17.7021
0.000443750 17.3638
0.000462500 17.0469
0.000481250 16.7493
0.000500000 16.4690
0.000515625 16.2477
0.000531250 16.0364
0.000546875 15.8346
0.000562500 15.6415
0.000578125 15.4566
0.000593750 15.2793
0.000609375 15.1090
0.000625000 14.9454
0.000640625 14.7881
0.000656250 14.6366
0.000671875 14.4906
0.000687500 14.3498
0.000718750 14.0825
0.000750000 13.8328
0.000781250 13.5988
0.000812500 13.3789
0.000843750 13.1719
0.000875000 12.9764
0.000906250 12.7916
0.000937500 12.6165
0.000968750 12.4502
0.00100000 12.2921
0.00103125 12.1416
0.00106250 11.9980
0.00109375 11.8609
0.00112500 11.7298
0.00115625 11.6042
0.00118750 11.4839
0.00121875 11.3684
0.00125000 11.2574
0.00128125 11.1507
0.00131250 11.0480
0.00134375 10.9491
0.00137500 10.8537
0.00143750 10.6727
0.00150000 10.5036
0.00156250 10.3453
0.00162500 10.1965
0.00168750 10.0564
0.00175000 9.92419
0.00181250 9.79918
0.00187500 9.68074
0.00193750 9.56831
0.00200000 9.46142
0.00209375 9.31051
0.00218750 9.16980
0.00228125 9.03820
0.00237500 8.91478
0.00246875 8.79874
0.00256250 8.68937
0.00265625 8.58607
0.00275000 8.48830
0.00284375 8.39558
0.00293750 8.30750
0.00303125 8.22369
0.00312500 8.14382
0.00321875 8.06759
0.00331250 7.99473
0.00340625 7.92501
0.00350000 7.85820
0.00359375 7.79412
0.00368750 7.73258
0.00378125 7.67342
0.00387500 7.61649
0.00396875 7.56165
0.00406250 7.50879
0.00425000 7.40853
0.00443750 7.31489
0.00462500 7.22718
0.00481250 7.14480
0.00500000 7.06723
0.00515625 7.00595
0.00531250 6.94747
0.00546875 6.89159
0.00562500 6.83811
0.00578125 6.78688
0.00593750 6.73774
0.00609375 6.69056
0.00625000 6.64520
0.00640625 6.60155
0.00656250 6.55952
0.00671875 6.51900
0.00687500 6.47990
0.00718750 6.40566
0.00750000 6.33623
0.00781250 6.27110
0.00812500 6.20986
0.00843750 6.15214
0.00875000 6.09760
0.00906250 6.04598
0.00937500 5.99701
0.00968750 5.95049
0.0100000 5.90621
0.0103125 5.86400
0.0106250 5.82371
0.0109375 5.78519
0.0112500 5.74832
0.0115625 5.71299
0.0118750 5.67909
0.0121875 5.64653
0.0125000 5.61522
0.0128125 5.58508
0.0131250 5.55605
0.0134375 5.52806
0.0137500 5.50104
0.0143750 5.44972
0.0150000 5.40170
0.0156250 5.35664
0.0162500 5.31425
0.0168750 5.27428
0.0175000 5.23650
0.0181250 5.20073
0.0187500 5.16678
0.0193750 5.13452
0.0200000 5.10381
0.0206625 5.07281
0.0213250 5.04329
0.0219875 5.01513
0.0226500 4.98824
0.0233125 4.96252
0.0239750 4.93789
0.0246375 4.91427
0.0253000 4.89160
0.0264578 4.85407
0.0276156 4.81896
0.0287734 4.78603
0.0299313 4.75504
0.0310891 4.72583
0.0322469 4.69822
0.0334047 4.67208
0.0345625 4.64728
0.0355274 4.62756
0.0364922 4.60863
0.0374570 4.59044
0.0384219 4.57295
0.0393867 4.55612
0.0403516 4.53990
0.0413164 4.52425
0.0422813 4.50915
0.0442109 4.48046
0.0461406 4.45361
0.0480703 4.42841
0.0500000 4.40470
0.0515625 4.38649
0.0531250 4.36910
0.0546875 4.35247
0.0562500 4.33654
0.0578125 4.32127
0.0593750 4.30662
0.0609375 4.29253
0.0625000 4.27899
0.0640625 4.26595
0.0656250 4.25338
0.0671875 4.24125
0.0687500 4.22955
0.0718750 4.20730
0.0750000 4.18647
0.0781250 4.16691
0.0812500 4.14850
0.0843750 4.13112
0.0875000 4.11469
0.0906250 4.09912
0.0937500 4.08435
0.0968750 4.07030
0.100000 4.05691
0.103125 4.04415
0.106250 4.03196
0.109375 4.02029
0.112500 4.00913
0.115625 3.99841
0.118750 3.98813
0.121875 3.97825
0.125000 3.96875
0.128125 3.95960
0.131250 3.95078
0.134375 3.94228
0.137500 3.93406
0.143750 3.91845
0.150000 3.90383
0.156250 3.89009
0.162500 3.87716
0.168750 3.86495
0.175000 3.85341
0.181250 3.84247
0.187500 3.83209
0.193750 3.82223
0.200000 3.81283
0.209375 3.79953
0.218750 3.78709
0.228125 3.77543
0.237500 3.76447
0.246875 3.75414
0.256250 3.74439
0.265625 3.73516
0.275000 3.72641
0.284375 3.71809
0.293750 3.71018
0.303125 3.70264
0.312500 3.69544
0.321875 3.68856
0.331250 3.68198
0.340625 3.67567
0.350000 3.66962
0.359375 3.66380
0.368750 3.65821
0.378125 3.65283
0.387500 3.64765
0.396875 3.64266
0.406250 3.63784
0.425000 3.62869
0.443750 3.62011
0.462500 3.61207
0.500000 3.59737
0.531250 3.58634
0.562500 3.57622
0.593750 3.56691
0.625000 3.55830
0.687500 3.54289
0.750000 3.52945
0.812500 3.51759
0.875000 3.50705
0.937500 3.49758
1.00000 3.48899
1.06250 3.48116
1.12500 3.47399
1.18750 3.46739
1.25000 3.46129
1.37500 3.45036
1.50000 3.44082
1.62500 3.43239
1.75000 3.42490
1.87500 3.41815
2.00000 3.41202
2.18750 3.40381
2.37500 3.39659
2.56250 3.39017
2.75000 3.38441
2.93750 3.37920
3.12500 3.37444
3.31250 3.37008
3.50000 3.36606
3.87500 3.35889
4.25000 3.35266
4.62500 3.34716
5.00000 3.34227
5.31250 3.33858
5.62500 3.33517
5.93750 3.33202
6.25000 3.32909
6.87500 3.32379
7.50000 3.31911
8.12500 3.31492
8.75000 3.31115
9.37500 3.30771
10.0000 3.30455
10.6250 3.30163
11.2500 3.29892
11.8750 3.29639
12.5000 3.29402
13.7500 3.28967
15.0000 3.28575
16.2500 3.28219
17.5000 3.27892
18.7500 3.27588
20.0000 3.27304
21.8750 3.26910
23.7500 3.26546
25.6250 3.26208
27.5000 3.25891
29.3750 3.25590
31.2500 3.25305
33.1250 3.25032
35.0000 3.24770
38.7500 3.24273
42.5000 3.23806
46.2500 3.23363
50.0000 3.22940
53.1250 3.22599
56.2500 3.22268
59.3750 3.21945
62.5000 3.21629
68.7500 3.21017
75.0000 3.20425
81.2500 3.19850
87.5000 3.19289
93.7500 3.18739
100.000 3.18200
106.250 3.17670
112.500 3.17147
118.750 3.16631
125.000 3.16122
137.500 3.15119
150.000 3.14134
162.500 3.13166
175.000 3.12211
187.500 3.11269
200.000 3.10337
218.750 3.08959
237.500 3.07601
256.250 3.06262
275.000 3.04940
293.750 3.03634
312.500 3.02343
331.250 3.01068
350.000 2.99806
387.500 2.97323
425.000 2.94892
462.500 2.92512
500.000 2.90182
531.250 2.88278
562.500 2.86407
593.750 2.84571
625.000 2.82769
687.500 2.79268
750.000 2.75909
812.500 2.72698
875.000 2.69643
937.500 2.66753
1000.00 2.64040
1062.50 2.61520
1125.00 2.59212
1187.50 2.57137
1250.00 2.55324
1312.50 2.53806
1375.00 2.52622
1437.50 2.51823
1500.00 2.51470
1562.50 2.51637
1625.00 2.52418
1687.50 2.53926
1718.75 2.54997
1750.00 2.56309
1781.25 2.57886
1812.50 2.59756
1843.75 2.61949
1875.00 2.64502
1906.25 2.67456
1937.50 2.70858
1968.75 2.74761
2000.00 2.79229
2039.74 2.85901
2059.61 2.89616
2079.49 2.93756
2099.36 2.98124
2119.23 3.02977
2158.97 3.13826
2198.71 3.26884
2218.58 3.34171
2238.45 3.42325
2258.33 3.50951
2278.20 3.60593
2298.07 3.70888
2317.94 3.82298
2339.80 3.96231
2361.66 4.11597
2383.51 4.28664
2405.37 4.47777
2427.23 4.68957
2449.09 4.92810
2460.02 5.05700
2470.95 5.19574
2492.80 5.49532
2513.67 5.82065
2524.10 5.99606
2534.53 6.18623
2555.40 6.59769
2576.26 7.06951
2586.70 7.32709
2597.13 7.60765
2607.56 7.90332
2617.99 8.22051
2628.43 8.56664
2638.86 8.93218
2649.29 9.32773
2659.72 9.75184
2670.65 10.2373
2681.58 10.7636
2692.51 11.3366
2703.44 11.9631
2714.37 12.6459
2725.30 13.3959
2736.23 14.2198
2747.15 15.1250
2758.08 16.1285
2769.01 17.2371
2779.94 18.4690
2785.41 19.1375
2790.87 19.8458
2796.34 20.5906
2801.80 21.3802
2807.27 22.2213
2812.73 23.1082
2818.19 24.0493
2823.66 25.0560
2829.12 26.1227
2834.59 27.2549
2842.54 29.0444
2850.48 31.0142
2858.43 33.1888
2866.38 35.5957
2874.33 38.2612
2878.30 39.7015
2882.28 41.2290
2886.25 42.8436
2890.23 44.5517
2894.20 46.3602
2898.17 48.2768
2903.64 51.1044
2909.10 54.1757
2914.57 57.5182
2920.03 61.1621
2925.50 65.1427
2930.96 69.4990
2936.43 74.2772
2941.89 79.5261
2947.36 85.3071
2952.82 91.6831
2958.29 98.7324
2963.75 106.539
2966.48 110.757
2969.21 115.200
2971.95 119.885
2974.68 124.825
2977.41 130.038
2980.14 135.538
2982.88 141.342
2985.61 147.469
2988.31 153.857
2991.00 160.594
2993.70 167.701
2996.40 175.201
2999.09 183.114
3001.79 191.452
3004.49 200.242
3007.19 209.499
3009.88 219.240
3012.58 229.478
3015.28 240.225
3017.97 251.481
3023.37 275.560
3028.76 301.634
3034.92 333.677
3041.07 367.069
3047.23 401.049
3053.38 433.863
3056.46 449.169
3059.54 463.341
3062.61 476.074
3065.69 487.067
3068.77 496.046
3071.85 502.773
3074.92 507.070
3078.00 508.818
3081.08 507.978
3084.16 504.591
3087.23 498.773
3090.31 490.707
3093.39 480.619
3096.47 468.787
3099.54 455.504
3102.62 441.070
3108.77 409.882
3114.93 377.366
3121.08 345.222
3127.24 314.229
3132.77 288.233
3135.54 275.949
3138.30 264.169
3141.07 252.899
3143.83 242.126
3146.60 231.850
3149.37 222.070
3152.13 212.760
3154.90 203.911
3157.66 195.507
3160.43 187.529
3163.19 179.953
3165.96 172.767
3168.73 165.947
3171.49 159.477
3174.32 153.207
3177.14 147.263
3179.97 141.625
3182.80 136.282
3185.62 131.210
3188.45 126.397
3191.28 121.826
3194.10 117.487
3199.76 109.440
3205.41 102.160
3211.06 95.5600
3216.72 89.5636
3222.37 84.1054
3228.02 79.1256
3233.67 74.5731
3239.33 70.4032
3244.98 66.5753
3250.63 63.0550
3256.29 59.8112
3261.94 56.8163
3266.05 54.7806
3270.16 52.8560
3274.27 51.0339
3278.39 49.3081
3282.50 47.6715
3286.61 46.1252
3294.83 43.2542
3303.05 40.6493
3311.28 38.2854
3319.50 36.1333
3327.72 34.1694
3333.37 32.9207
3339.03 31.7411
3344.68 30.6246
3350.33 29.5764
3355.99 28.5851
3361.64 27.6427
3367.29 26.7540
3372.94 25.9128
3378.60 25.1105
3384.25 24.3504
3395.56 22.9419
3406.86 21.6650
3418.17 20.5013
3429.47 19.4428
3440.78 18.4728
3452.09 17.5829
3463.39 16.7662
3474.70 16.0115
3486.00 15.3154
3497.31 14.6709
3508.62 14.0719
3519.41 13.5438
3530.20 13.0477
3540.99 12.5853
3551.79 12.1452
3562.58 11.7374
3573.37 11.3544
3584.16 10.9888
3594.95 10.6492
3616.54 10.0207
3627.33 9.73446
3638.12 9.46196
3648.91 9.20112
3659.71 8.95728
3681.29 8.50038
3703.90 8.07057
3715.21 7.86916
3726.51 7.67942
3749.13 7.32369
3771.74 7.00060
3794.35 6.70323
3816.96 6.43132
3839.57 6.18088
3862.18 5.94882
3883.77 5.74451
3905.35 5.55394
3926.94 5.37571
3948.52 5.20986
3970.11 5.05458
3991.69 4.90866
4013.27 4.77224
4024.07 4.70720
4034.86 4.64409
4043.08 4.59758
4051.30 4.55227
4059.53 4.50819
4067.75 4.46536
4075.97 4.42386
4084.19 4.38371
4092.42 4.34511
4100.64 4.30832
4104.75 4.29070
4108.86 4.27368
4112.46 4.25933
4116.06 4.24557
4119.65 4.23246
4123.25 4.22011
4126.85 4.20872
4130.45 4.19845
4134.04 4.18954
4137.64 4.18234
4139.70 4.17915
4141.75 4.17678
4143.81 4.17536
4145.86 4.17506
4147.92 4.17607
4149.97 4.17865
4152.03 4.18310
4154.08 4.18987
4156.14 4.19955
4158.20 4.21283
4159.55 4.22398
4160.89 4.23743
4162.24 4.25364
4163.59 4.27315
4164.94 4.29665
4166.29 4.32500
4167.64 4.35935
4168.99 4.40121
4169.70 4.42682
4170.40 4.45536
4171.11 4.48736
4171.81 4.52324
4172.52 4.56371
4173.23 4.60940
4173.93 4.66134
4174.64 4.72049
4175.22 4.77539
4175.80 4.83692
4176.38 4.90629
4176.95 4.98487
4177.53 5.07453
4178.11 5.17709
4178.69 5.29540
4178.98 5.36151
4179.27 5.43294
4179.62 5.52858
4179.97 5.63412
4180.33 5.75173
4180.68 5.88268
4181.03 6.03008
4181.39 6.19606
4181.74 6.38477
4182.09 6.60101
4182.27 6.72168
4182.45 6.85178
4182.62 6.99239
4182.80 7.14388
4182.98 7.30942
4183.15 7.48879
4183.33 7.68594
4183.51 7.90084
4183.68 8.13847
4183.86 8.40059
4184.04 8.69056
4184.21 9.01028
4184.39 9.36773
4184.57 9.76376
4184.74 10.2084
4184.92 10.7028
4185.02 11.0000
4185.11 11.3130
4185.21 11.6496
4185.31 12.0042
4185.40 12.3856
4185.50 12.7874
4185.59 13.2150
4185.69 13.6699
4185.79 14.1591
4185.88 14.6740
4185.98 15.2274
4186.08 15.8095
4186.17 16.4343
4186.27 17.0910
4186.37 17.7875
4186.46 18.5259
4186.55 19.2494
4186.64 20.0033
4186.73 20.8060
4186.82 21.6411
4186.90 22.5288
4186.99 23.4506
4187.08 24.4175
4187.17 25.4307
4187.26 26.5037
4187.35 27.6132
4187.43 28.7721
4187.52 29.9812
4187.70 32.5672
4187.87 35.3453
4188.02 37.7893
4188.16 40.3535
4188.31 43.0704
4188.45 45.8975
4188.60 48.8670
4188.74 51.9288
4189.03 58.3663
4189.38 66.6335
4189.74 75.0320
4190.09 83.2676
4190.27 87.1959
4190.44 90.9108
4190.62 94.3668
4190.79 97.5386
4190.97 100.381
4191.14 102.841
4191.33 105.025
4191.52 106.712
4191.70 107.873
4191.89 108.486
4192.00 108.590
4192.03 108.582
4192.12 108.473
4192.21 108.237
4192.39 107.380
4192.57 106.025
4192.74 104.205
4192.89 102.435
4193.03 100.416
4193.17 98.1402
4193.31 95.6604
4193.58 90.3645
4193.85 84.5181
4194.22 75.9720
4194.59 67.2006
4194.86 60.8316
4195.13 54.6735
4195.40 48.8322
4195.54 46.0665
4195.67 43.4069
4195.81 40.8410
4195.95 38.3933
4196.08 36.0667
4196.22 33.8788
4196.35 31.7974
4196.49 29.8524
4196.62 28.0134
4196.76 26.3050
4196.86 25.0547
4196.97 23.8712
4197.07 22.7525
4197.18 21.7063
4197.28 20.7103
4197.39 19.7811
4197.49 18.8985
4197.60 18.0768
4197.70 17.2978
4197.81 16.5673
4197.91 15.8826
4198.02 15.2473
4198.12 14.6468
4198.22 14.0902
4198.33 13.5646
4198.43 13.0777
4198.57 12.4883
4198.70 11.9523
4198.84 11.4574
4198.98 11.0073
4199.11 10.5915
4199.25 10.2129
4199.38 9.86267
4199.52 9.54322
4199.65 9.24715
4199.79 8.97644
4199.92 8.72490
4200.06 8.49424
4200.20 8.27925
4200.33 8.08149
4200.47 7.89653
4200.60 7.72580
4200.76 7.53732
4200.92 7.36465
4201.08 7.20506
4201.24 7.05718
4201.40 6.91983
4201.56 6.79197
4201.88 6.56113
4202.20 6.35852
4202.52 6.17933
4202.84 6.01979
4203.16 5.87689
4203.43 5.76706
4203.70 5.66620
4203.98 5.57329
4204.25 5.48745
4204.52 5.40794
4204.79 5.33411
4205.33 5.20131
4205.87 5.08536
4206.41 4.98339
4206.96 4.89314
4207.50 4.81294
4208.14 4.72871
4208.78 4.65448
4209.42 4.58846
4210.06 4.52959
4210.70 4.47667
4211.34 4.42903
4211.98 4.38580
4212.62 4.34654
4213.71 4.28761
4214.79 4.23657
4215.87 4.19199
4216.96 4.15275
4218.04 4.11790
4219.12 4.08679
4220.21 4.05879
4221.29 4.03349
4223.06 3.99685
4224.84 3.96507
4226.61 3.93712
4228.38 3.91227
4230.16 3.88994
4231.93 3.86972
4233.70 3.85125
4235.48 3.83425
4238.43 3.80860
4241.39 3.78563
4244.35 3.76478
4247.30 3.74564
4250.26 3.72783
4253.21 3.71110
4256.17 3.69529
4259.12 3.68026
4263.46 3.65937
4267.79 3.63961
4272.13 3.62076
4276.46 3.60267
4280.80 3.58521
4285.13 3.56830
4293.80 3.53583
4299.32 3.51594
4304.84 3.49654
4315.87 3.45902
4326.91 3.42293
4337.94 3.38806
4348.97 3.35433
4360.01 3.32141
4371.04 3.28933
4382.08 3.25803
4397.05 3.21673
4412.03 3.17666
4441.98 3.09987
4471.93 3.02692
4501.88 2.95774
4531.83 2.89173
4561.78 2.82863
4591.73 2.76819
4621.68 2.71027
4645.33 2.66628
4668.97 2.62427
4692.62 2.58244
4716.26 2.54265
4763.55 2.46561
4810.84 2.39267
4858.13 2.32342
4905.42 2.25748
4952.71 2.19454
5000.00 2.13434
5042.35 2.08263
5084.70 2.03270
5127.05 1.98438
5169.40 1.93753
5254.10 1.84781
5338.80 1.76275
5423.50 1.68227
5508.20 1.60450
5592.90 1.52955
5677.60 1.45703
5750.20 1.39675
5822.80 1.33754
5895.40 1.27925
5968.00 1.22179
6052.70 1.15580
6137.40 1.09050
6222.10 1.02570
6306.80 0.961204
6391.50 0.896984
6476.20 0.832886
6560.90 0.768875
6645.60 0.704980
6709.13 0.657228
6772.65 0.609722
6836.18 0.562610
6899.70 0.516238
6963.23 0.470921
7026.75 0.427100
7090.28 0.385772
7122.04 0.366262
7153.80 0.347687
7181.03 0.332871
7208.25 0.319154
7235.48 0.306705
7262.70 0.295736
7276.31 0.290779
7289.93 0.286500
7303.54 0.282581
7317.15 0.279298
7344.38 0.274498
7357.99 0.273092
7371.60 0.272541
7383.70 0.272765
7395.80 0.273713
7407.90 0.275442
7420.00 0.278014
7436.64 0.283086
7453.28 0.290038
7469.91 0.299135
7478.23 0.304575
7486.55 0.310676
7494.87 0.317383
7503.19 0.324818
7511.51 0.333059
7519.83 0.342027
7528.14 0.351829
7536.46 0.362608
7544.78 0.374277
7553.10 0.386904
7560.66 0.399421
7568.23 0.412784
7575.79 0.427123
7583.35 0.442618
7590.91 0.459065
7598.48 0.476786
7606.04 0.495764
7613.60 0.515912
7621.16 0.537655
7628.73 0.560742
7636.29 0.585384
7643.85 0.611876
7651.41 0.639903
7658.98 0.669962
7666.54 0.701717
7674.10 0.735892
7682.42 0.776152
7690.74 0.819392
7699.06 0.865841
7707.38 0.915741
7715.69 0.969372
7724.01 1.02703
7732.33 1.08904
7740.65 1.15574
7748.97 1.22757
7757.29 1.30493
7765.61 1.38831
7773.93 1.47825
7782.24 1.57535
7790.56 1.68026
7798.88 1.79373
7807.20 1.91656
7815.52 2.04972
7823.84 2.19422
7832.16 2.35125
7840.48 2.52212
7848.79 2.70838
7857.11 2.91174
7865.43 3.13417
7873.75 3.37788
7882.07 3.64558
7890.39 3.94022
7898.71 4.26535
7902.87 4.44058
7907.03 4.62504
7911.19 4.81936
7915.34 5.02416
7919.50 5.24031
7923.66 5.46846
7927.82 5.70962
7931.98 5.96470
7936.14 6.23475
7940.30 6.52093
7946.73 6.99819
7953.16 7.52246
7959.59 8.10011
7966.01 8.73850
7969.23 9.08311
7972.44 9.44605
7975.66 9.82762
7978.87 10.2298
7982.08 10.6562
7985.30 11.1080
7988.51 11.5866
7991.73 12.0940
7995.89 12.7973
8000.04 13.5585
8004.20 14.3843
8008.36 15.2818
8012.52 16.2601
8016.68 17.3285
8020.84 18.4988
8025.00 19.7841
8029.16 21.2005
8033.32 22.7652
8037.48 24.5003
8039.56 25.4392
8041.64 26.4300
8043.72 27.4772
8045.80 28.5848
8047.88 29.7572
8049.96 30.9988
8052.04 32.3163
8054.12 33.7142
8056.20 35.2003
8058.28 36.7804
8061.30 39.2642
8064.33 41.9907
8067.35 44.9891
8070.38 48.2902
8073.40 51.9282
8074.91 53.8880
8076.43 55.9487
8077.94 58.1189
8079.45 60.4016
8080.96 62.8052
8082.48 65.3321
8084.60 69.1133
8086.73 73.1681
8088.86 77.5132
8090.99 82.1613
8093.12 87.1216
8095.24 92.3972
8097.37 97.9831
8099.50 103.862
8102.59 112.841
8105.68 122.184
8108.76 131.609
8111.85 140.714
8113.39 144.987
8114.94 148.963
8116.48 152.555
8118.03 155.673
8119.57 158.238
8121.11 160.169
8122.66 161.399
8124.20 161.873
8126.10 161.363
8128.00 159.621
8129.43 157.519
8130.85 154.771
8132.28 151.425
8133.70 147.540
8135.13 143.183
8136.55 138.429
8137.98 133.356
8139.40 128.044
8142.25 117.002
8145.10 105.842
8147.95 94.9814
8149.38 89.7656
8150.80 84.7329
8152.12 80.2450
8153.44 75.9419
8154.77 71.8299
8156.09 67.9120
8157.41 64.1888
8158.73 60.6585
8160.05 57.3179
8161.38 54.1622
8162.70 51.1855
8164.02 48.3813
8165.34 45.7426
8166.66 43.2621
8167.99 40.9322
8169.31 38.7455
8170.63 36.6945
8171.95 34.7719
8173.28 32.9589
8174.61 31.2620
8175.95 29.6747
8177.28 28.1906
8178.61 26.8037
8179.94 25.5085
8181.27 24.2995
8182.60 23.1719
8183.93 22.1210
8185.26 21.1423
8186.59 20.2318
8187.92 19.3857
8189.26 18.6004
8190.59 17.8726
