Ga-69(n,g) ENDFB-8.0
Energy(eV) XS(b)
1.00000E-05 87.0177
1.03125E-05 85.6891
1.06250E-05 84.4196
1.09375E-05 83.2048
1.12500E-05 82.0411
1.15625E-05 80.9248
1.18750E-05 79.8529
1.21875E-05 78.8225
1.25000E-05 77.8310
1.28125E-05 76.8760
1.31250E-05 75.9553
1.34375E-05 75.0669
1.37500E-05 74.2089
1.43750E-05 72.5778
1.50000E-05 71.0496
1.56250E-05 69.6141
1.62500E-05 68.2623
1.68750E-05 66.9862
1.75000E-05 65.7792
1.81250E-05 64.6351
1.87500E-05 63.5487
1.93750E-05 62.5154
2.00000E-05 61.5308
2.09375E-05 60.1375
2.18750E-05 58.8347
2.28125E-05 57.6131
2.37500E-05 56.4645
2.46875E-05 55.3820
2.56250E-05 54.3595
2.65625E-05 53.3916
2.75000E-05 52.4736
2.84375E-05 51.6014
2.93750E-05 50.7713
3.03125E-05 49.9801
3.12500E-05 49.2246
3.21875E-05 48.5025
3.31250E-05 47.8112
3.40625E-05 47.1487
3.50000E-05 46.5129
3.59375E-05 45.9022
3.68750E-05 45.3150
3.78125E-05 44.7497
3.87500E-05 44.2050
3.96875E-05 43.6798
4.06250E-05 43.1729
4.25000E-05 42.2098
4.43750E-05 41.3084
4.62500E-05 40.4624
4.81250E-05 39.6663
5.00000E-05 38.9155
5.15625E-05 38.3213
5.31250E-05 37.7536
5.46875E-05 37.2103
5.62500E-05 36.6899
5.78125E-05 36.1907
5.93750E-05 35.7113
6.09375E-05 35.2505
6.25000E-05 34.8071
6.40625E-05 34.3800
6.56250E-05 33.9682
6.71875E-05 33.5709
6.87500E-05 33.1873
7.18750E-05 32.4578
7.50000E-05 31.7744
7.81250E-05 31.1324
8.12500E-05 30.5278
8.43750E-05 29.9572
8.75000E-05 29.4174
9.06250E-05 28.9057
9.37500E-05 28.4199
9.68750E-05 27.9577
0.000100000 27.5174
0.000103125 27.0973
0.000106250 26.6958
0.000109375 26.3117
0.000112500 25.9437
0.000115625 25.5907
0.000118750 25.2517
0.000121875 24.9259
0.000125000 24.6123
0.000128125 24.3103
0.000131250 24.0192
0.000134375 23.7382
0.000137500 23.4669
0.000143750 22.9511
0.000150000 22.4679
0.000156250 22.0139
0.000162500 21.5864
0.000168750 21.1829
0.000175000 20.8012
0.000181250 20.4394
0.000187500 20.0959
0.000193750 19.7691
0.000200000 19.4578
0.000209375 19.0172
0.000218750 18.6052
0.000228125 18.2189
0.000237500 17.8557
0.000246875 17.5134
0.000256250 17.1900
0.000265625 16.8839
0.000275000 16.5936
0.000284375 16.3178
0.000293750 16.0553
0.000303125 15.8051
0.000312500 15.5662
0.000321875 15.3379
0.000331250 15.1193
0.000340625 14.9097
0.000350000 14.7087
0.000359375 14.5156
0.000368750 14.3299
0.000378125 14.1511
0.000387500 13.9789
0.000396875 13.8128
0.000406250 13.6525
0.000425000 13.3479
0.000443750 13.0629
0.000462500 12.7954
0.000481250 12.5436
0.000500000 12.3062
0.000515625 12.1183
0.000531250 11.9388
0.000546875 11.7670
0.000562500 11.6024
0.000578125 11.4445
0.000593750 11.2929
0.000609375 11.1472
0.000625000 11.0070
0.000640625 10.8719
0.000656250 10.7417
0.000671875 10.6161
0.000687500 10.4948
0.000718750 10.2641
0.000750000 10.0480
0.000781250 9.84496
0.000812500 9.65378
0.000843750 9.47332
0.000875000 9.30262
0.000906250 9.14083
0.000937500 8.98719
0.000968750 8.84105
0.00100000 8.70181
0.00103125 8.56895
0.00106250 8.44200
0.00109375 8.32053
0.00112500 8.20415
0.00115625 8.09252
0.00118750 7.98534
0.00121875 7.88230
0.00125000 7.78314
0.00128125 7.68764
0.00131250 7.59557
0.00134375 7.50673
0.00137500 7.42094
0.00143750 7.25782
0.00150000 7.10501
0.00156250 6.96146
0.00162500 6.82627
0.00168750 6.69867
0.00175000 6.57796
0.00181250 6.46355
0.00187500 6.35492
0.00193750 6.25158
0.00200000 6.15312
0.00209375 6.01379
0.00218750 5.88351
0.00228125 5.76135
0.00237500 5.64649
0.00246875 5.53824
0.00256250 5.43599
0.00265625 5.33919
0.00275000 5.24740
0.00284375 5.16017
0.00293750 5.07716
0.00303125 4.99803
0.00312500 4.92249
0.00321875 4.85027
0.00331250 4.78115
0.00340625 4.71489
0.00350000 4.65132
0.00359375 4.59025
0.00368750 4.53152
0.00378125 4.47499
0.00387500 4.42053
0.00396875 4.36800
0.00406250 4.31731
0.00425000 4.22100
0.00443750 4.13086
0.00462500 4.04627
0.00481250 3.96666
0.00500000 3.89158
0.00515625 3.83216
0.00531250 3.77539
0.00546875 3.72106
0.00562500 3.66902
0.00578125 3.61910
0.00593750 3.57116
0.00609375 3.52508
0.00625000 3.48074
0.00640625 3.43803
0.00656250 3.39686
0.00671875 3.35713
0.00687500 3.31876
0.00718750 3.24581
0.00750000 3.17747
0.00781250 3.11328
0.00812500 3.05282
0.00843750 2.99575
0.00875000 2.94177
0.00906250 2.89060
0.00937500 2.84202
0.00968750 2.79581
0.0100000 2.75178
0.0103125 2.70976
0.0106250 2.66962
0.0109375 2.63120
0.0112500 2.59440
0.0115625 2.55911
0.0118750 2.52521
0.0121875 2.49263
0.0125000 2.46128
0.0128125 2.43108
0.0131250 2.40197
0.0134375 2.37388
0.0137500 2.34675
0.0143750 2.29517
0.0150000 2.24685
0.0156250 2.20146
0.0162500 2.15871
0.0168750 2.11836
0.0175000 2.08019
0.0181250 2.04400
0.0187500 2.00965
0.0193750 1.97697
0.0200000 1.94583
0.0206625 1.91438
0.0213250 1.88441
0.0219875 1.85580
0.0226500 1.82846
0.0233125 1.80229
0.0239750 1.77721
0.0246375 1.75316
0.0253000 1.73005
0.0264578 1.69178
0.0276156 1.65594
0.0287734 1.62229
0.0299313 1.59061
0.0310891 1.56073
0.0322469 1.53246
0.0334047 1.50568
0.0345625 1.48025
0.0355274 1.46002
0.0364922 1.44060
0.0374570 1.42192
0.0384219 1.40396
0.0393867 1.38666
0.0403516 1.36998
0.0413164 1.35389
0.0422813 1.33835
0.0442109 1.30882
0.0461406 1.28115
0.0480703 1.25517
0.0500000 1.23071
0.0515625 1.21192
0.0531250 1.19397
0.0546875 1.17679
0.0562500 1.16033
0.0578125 1.14454
0.0593750 1.12939
0.0609375 1.11482
0.0625000 1.10080
0.0640625 1.08730
0.0656250 1.07429
0.0671875 1.06173
0.0687500 1.04960
0.0718750 1.02655
0.0750000 1.00495
0.0781250 0.984647
0.0812500 0.965530
0.0843750 0.947482
0.0875000 0.930410
0.0906250 0.914228
0.0937500 0.898862
0.0968750 0.884247
0.100000 0.870322
0.103125 0.857035
0.106250 0.844340
0.109375 0.832193
0.112500 0.820555
0.115625 0.809394
0.118750 0.798677
0.121875 0.788376
0.125000 0.778465
0.128125 0.768920
0.131250 0.759721
0.134375 0.750845
0.137500 0.742274
0.143750 0.725977
0.150000 0.710704
0.156250 0.696352
0.162500 0.682834
0.168750 0.670073
0.175000 0.658003
0.181250 0.646564
0.187500 0.635705
0.193750 0.625379
0.200000 0.615542
0.209375 0.601621
0.218750 0.588599
0.228125 0.576384
0.237500 0.564899
0.246875 0.554075
0.256250 0.543850
0.265625 0.534173
0.275000 0.524995
0.284375 0.516275
0.293750 0.507976
0.303125 0.500066
0.312500 0.492514
0.321875 0.485295
0.331250 0.478385
0.340625 0.471763
0.350000 0.465408
0.359375 0.459305
0.368750 0.453436
0.378125 0.447787
0.387500 0.442348
0.396875 0.437105
0.406250 0.432047
0.425000 0.422435
0.443750 0.413430
0.462500 0.404974
0.500000 0.389540
0.531250 0.377949
0.562500 0.367316
0.593750 0.357532
0.625000 0.348494
0.687500 0.332305
0.750000 0.318188
0.812500 0.305736
0.875000 0.294677
0.937500 0.284742
1.00000 0.275724
1.06250 0.267516
1.12500 0.260004
1.18750 0.253094
1.25000 0.246711
1.37500 0.235280
1.50000 0.225313
1.62500 0.216523
1.75000 0.208715
1.87500 0.201703
2.00000 0.195333
2.18750 0.186831
2.37500 0.179370
2.56250 0.172747
2.75000 0.166829
2.93750 0.161490
3.12500 0.156629
3.31250 0.152189
3.50000 0.148114
3.87500 0.140876
4.25000 0.134627
4.62500 0.129162
5.00000 0.124335
5.31250 0.120715
5.62500 0.117400
5.93750 0.114354
6.25000 0.111544
6.87500 0.106519
7.50000 0.102148
8.12500 0.0983046
8.75000 0.0948959
9.37500 0.0918447
10.0000 0.0890901
10.6250 0.0865922
11.2500 0.0843151
11.8750 0.0822296
12.5000 0.0803116
13.7500 0.0769018
15.0000 0.0739610
16.2500 0.0713989
17.5000 0.0691508
18.7500 0.0671631
20.0000 0.0653933
21.8750 0.0630876
23.7500 0.0611320
25.6250 0.0594669
27.5000 0.0580503
29.3750 0.0568478
31.2500 0.0558326
33.1250 0.0549876
35.0000 0.0542982
36.8750 0.0537537
38.7500 0.0533465
40.6250 0.0530715
42.5000 0.0529259
44.3750 0.0529091
46.2500 0.0530224
48.1250 0.0532694
50.0000 0.0536575
53.1250 0.0546314
54.6875 0.0552843
56.2500 0.0560631
57.8125 0.0569754
59.3750 0.0580331
60.9375 0.0592509
62.5000 0.0606456
64.0625 0.0622375
65.6250 0.0640506
67.1875 0.0661134
68.7500 0.0684602
70.3125 0.0711321
71.8750 0.0741786
73.4375 0.0776601
75.0000 0.0816503
76.1719 0.0850527
77.3438 0.0887709
78.5156 0.0929728
79.6875 0.0976712
80.8594 0.102959
82.0313 0.108913
83.2031 0.115669
83.7891 0.119381
84.3750 0.123345
85.1563 0.129069
85.9375 0.135344
86.7188 0.142245
87.5000 0.149854
88.2813 0.158270
89.0625 0.167611
89.8438 0.178016
90.6250 0.189651
91.4063 0.202666
91.7969 0.209762
92.1875 0.217346
92.5781 0.225425
92.9688 0.234038
93.3594 0.243233
93.7500 0.253065
94.2871 0.267733
94.8242 0.283898
95.3613 0.301769
95.8984 0.321596
96.4356 0.343676
96.9727 0.368365
97.2412 0.381818
97.5098 0.396090
97.7783 0.411251
98.0469 0.427373
98.2910 0.442937
98.5352 0.459434
98.7793 0.476942
99.0234 0.495546
99.2676 0.515338
99.5117 0.536421
99.7559 0.558899
100.000 0.582894
100.353 0.620558
100.705 0.662257
101.058 0.708560
101.410 0.760141
101.587 0.788163
101.763 0.817801
101.939 0.849179
102.115 0.882450
102.292 0.917856
102.468 0.955571
102.644 0.995782
102.821 1.03867
103.049 1.09863
103.277 1.16409
103.505 1.23579
103.733 1.31455
103.961 1.40133
104.189 1.49727
104.417 1.60371
104.645 1.72223
104.863 1.84845
104.972 1.91696
105.081 1.98943
105.190 2.06620
105.299 2.14759
105.408 2.23400
105.517 2.32575
105.625 2.42349
105.734 2.52764
105.843 2.63876
105.952 2.75736
106.061 2.88438
106.170 3.02050
106.279 3.16665
106.388 3.32372
106.502 3.50161
106.616 3.69434
106.730 3.90399
106.844 4.13218
106.958 4.38160
107.072 4.65448
107.186 4.95441
107.300 5.28450
107.414 5.64964
107.528 6.05466
107.642 6.50565
107.699 6.75038
107.756 7.00942
107.813 7.28442
107.870 7.57568
107.927 7.88562
107.984 8.21471
108.042 8.56583
108.099 8.93968
108.156 9.33897
108.213 9.76611
108.290 10.3990
108.368 11.0967
108.446 11.8686
108.524 12.7248
108.563 13.1894
108.601 13.6807
108.640 14.2006
108.679 14.7501
108.718 15.3345
108.757 15.9554
108.796 16.6159
108.835 17.3177
108.871 18.0167
108.907 18.7602
108.944 19.5522
108.980 20.3974
109.016 21.3006
109.052 22.2675
109.089 23.3045
109.125 24.4156
109.154 25.3532
109.182 26.3448
109.211 27.3987
109.239 28.5204
109.268 29.7206
109.296 30.9979
109.325 32.3644
109.353 33.8292
109.382 35.4082
109.410 37.1022
109.439 38.9298
109.467 40.9063
109.496 43.0495
109.524 45.3794
109.553 47.9196
109.581 50.6968
109.598 52.4681
109.615 54.3294
109.632 56.3108
109.649 58.3973
109.666 60.6228
109.682 62.9711
109.699 65.4810
109.716 68.1345
109.733 70.9759
109.750 73.9852
109.767 77.2130
109.783 80.6369
109.800 84.3148
109.817 88.2212
109.834 92.4220
109.851 96.8882
109.865 100.934
109.879 105.219
109.894 109.758
109.908 114.531
109.922 119.622
109.936 124.976
109.951 130.684
109.965 136.684
109.979 143.078
109.993 149.794
110.008 156.944
110.022 164.447
110.036 172.426
110.050 180.787
110.065 189.666
110.079 198.955
110.098 212.507
110.118 226.940
110.137 242.436
110.157 258.868
110.176 276.427
110.196 294.952
110.215 314.642
110.235 335.293
110.249 351.188
110.263 367.527
110.277 384.529
110.292 401.941
110.320 438.392
110.349 476.673
110.377 516.509
110.406 557.553
110.434 599.390
110.463 641.540
110.520 724.724
110.548 764.402
110.577 802.009
110.610 842.235
110.643 877.827
110.676 907.883
110.709 931.614
110.732 943.942
110.755 952.769
110.777 958.058
110.800 959.693
110.823 957.668
110.841 953.341
110.860 946.650
110.878 937.653
110.897 926.429
110.915 913.074
110.934 897.701
110.952 880.439
110.971 861.538
111.001 827.287
111.031 789.651
111.061 749.258
111.091 706.856
111.121 663.327
111.151 619.228
111.210 531.986
111.240 489.781
111.270 449.162
111.300 410.470
111.330 374.081
111.360 339.926
111.390 308.237
111.405 293.283
111.420 279.053
111.435 265.353
111.449 252.358
111.464 239.885
111.479 228.088
111.494 216.795
111.509 206.142
111.524 195.969
111.539 186.394
111.554 177.327
111.569 168.751
111.584 160.592
111.599 152.939
111.614 145.667
111.629 138.855
111.644 132.390
111.659 126.337
111.674 120.597
111.689 115.226
111.704 110.135
111.718 105.372
111.733 100.856
111.748 96.6313
111.763 92.6250
111.778 88.8753
111.793 85.3404
111.808 82.0068
111.827 78.0074
111.846 74.3112
111.865 70.8735
111.884 67.6729
111.903 64.6747
111.922 61.8923
111.941 59.2930
111.960 56.8617
111.979 54.5731
111.998 52.4384
112.017 50.4340
112.036 48.5495
112.055 46.7753
112.074 45.1028
112.112 42.0326
112.142 39.8455
112.172 37.8352
112.202 35.9821
112.232 34.2696
112.262 32.6831
112.292 31.2099
112.322 29.8389
112.351 28.5646
112.381 27.3699
112.411 26.2517
112.441 25.2032
112.471 24.2218
112.501 23.2956
112.531 22.4233
112.561 21.6006
112.590 20.8262
112.650 19.3960
112.710 18.1118
112.770 16.9538
112.830 15.9074
112.889 14.9553
112.949 14.0891
113.009 13.2960
113.069 12.5703
113.123 11.9603
113.177 11.3952
113.232 10.8689
113.286 10.3794
113.340 9.92188
113.395 9.49498
113.449 9.09529
113.503 8.72051
113.558 8.36797
113.612 8.03712
113.666 7.72564
113.721 7.43204
113.775 7.15446
113.829 6.89271
113.938 6.41077
113.998 6.16680
114.057 5.93656
114.117 5.71906
114.177 5.51368
114.297 5.13434
114.416 4.79328
114.536 4.48499
114.655 4.20586
114.775 3.95209
114.894 3.72070
114.976 3.57440
115.057 3.43661
115.139 3.30669
115.220 3.18404
115.302 3.06814
115.383 2.95850
115.546 2.75624
115.709 2.57409
115.872 2.40940
116.035 2.25999
116.198 2.12412
116.318 2.03203
116.437 1.94588
116.557 1.86504
116.676 1.78922
116.796 1.71789
116.915 1.65081
117.035 1.58759
117.154 1.52796
117.274 1.47159
117.393 1.41834
117.632 1.32019
117.872 1.23190
118.111 1.15226
118.350 1.08011
118.589 1.01457
118.828 0.954865
119.067 0.900335
119.306 0.850363
119.545 0.804493
119.784 0.762259
120.023 0.723339
120.240 0.690536
120.458 0.659983
120.675 0.631426
120.892 0.604672
121.110 0.579571
121.327 0.556027
121.544 0.533911
121.762 0.513109
121.979 0.493513
122.196 0.475047
122.414 0.457619
122.631 0.441152
123.066 0.410825
123.500 0.383595
123.739 0.369783
123.978 0.356723
124.457 0.332658
124.935 0.311017
125.413 0.291488
125.891 0.273801
126.369 0.257740
126.847 0.243107
127.325 0.229740
127.651 0.221277
127.977 0.213298
128.303 0.205764
128.629 0.198645
129.281 0.185537
129.933 0.173812
130.585 0.163203
131.237 0.153584
131.889 0.144855
132.541 0.136909
133.019 0.131526
133.497 0.126485
133.976 0.121755
134.454 0.117313
134.932 0.113135
135.410 0.109202
136.366 0.101996
137.322 0.0955626
138.279 0.0897985
139.235 0.0846125
140.191 0.0799303
140.800 0.0771836
141.408 0.0746015
142.625 0.0698796
143.842 0.0656751
145.059 0.0619162
146.276 0.0585722
147.493 0.0555237
148.710 0.0527676
149.927 0.0502703
150.884 0.0484743
151.840 0.0467982
152.796 0.0452302
153.752 0.0437759
155.665 0.0411355
157.577 0.0388217
159.490 0.0367711
161.402 0.0349552
163.315 0.0333366
165.227 0.0318848
166.879 0.0307527
168.531 0.0297184
171.834 0.0279063
175.138 0.0263632
178.441 0.0250554
180.093 0.0244689
181.744 0.0239324
183.396 0.0234224
185.048 0.0229616
188.351 0.0221204
191.655 0.0213928
195.827 0.0206173
200.000 0.0199648
203.654 0.0194918
207.307 0.0190951
210.961 0.0187660
214.614 0.0184991
218.268 0.0182908
221.921 0.0181383
225.575 0.0180405
229.228 0.0179986
233.926 0.0180304
238.623 0.0181603
243.320 0.0183947
245.669 0.0185468
248.018 0.0187454
250.366 0.0189610
252.715 0.0192298
255.064 0.0195259
257.412 0.0198719
259.761 0.0202545
262.110 0.0206997
264.458 0.0212049
266.807 0.0217784
269.547 0.0225480
272.287 0.0234387
275.028 0.0244704
277.768 0.0256791
279.138 0.0263549
280.508 0.0270945
281.878 0.0278894
283.248 0.0287537
284.618 0.0297036
285.988 0.0307281
287.358 0.0318490
288.728 0.0330689
290.164 0.0344872
291.599 0.0360555
293.034 0.0377953
294.469 0.0397319
295.905 0.0418947
297.340 0.0443205
298.775 0.0470525
300.211 0.0501432
301.385 0.0529849
302.559 0.0561535
303.734 0.0597015
304.908 0.0636906
305.495 0.0658735
306.082 0.0681976
306.670 0.0706725
307.257 0.0733046
307.844 0.0761072
308.431 0.0791184
309.018 0.0823524
309.605 0.0858244
310.323 0.0904271
311.041 0.0954713
311.758 0.101016
312.476 0.107127
313.194 0.113888
313.911 0.121393
314.629 0.129756
315.347 0.139112
315.999 0.148619
316.652 0.159230
316.978 0.165004
317.304 0.171125
317.630 0.177620
317.956 0.184521
318.283 0.191861
318.609 0.199681
318.935 0.208020
319.261 0.216924
319.587 0.226439
319.914 0.236621
320.240 0.247542
320.566 0.259290
320.925 0.273278
321.284 0.288497
321.642 0.305091
322.001 0.323228
322.360 0.343113
322.719 0.364965
323.078 0.389060
323.437 0.415719
323.795 0.445327
324.154 0.478319
324.334 0.496252
324.513 0.515245
324.692 0.535382
324.872 0.556758
325.051 0.579490
325.231 0.603669
325.410 0.629435
325.590 0.656928
325.769 0.686308
325.948 0.717749
326.128 0.751445
326.307 0.787617
326.519 0.833920
326.731 0.884486
326.943 0.939928
327.155 1.00085
327.367 1.06809
327.579 1.14248
327.791 1.22510
327.897 1.26989
328.003 1.31724
328.183 1.40375
328.362 1.49926
328.542 1.60507
328.721 1.72274
328.811 1.78658
328.900 1.85412
328.990 1.92563
329.080 2.00146
329.170 2.08194
329.259 2.16748
329.349 2.25852
329.439 2.35555
329.577 2.51864
329.716 2.69955
329.855 2.90134
329.924 3.01097
329.993 3.12710
330.063 3.25045
330.132 3.38127
330.201 3.52039
330.271 3.66855
330.340 3.82682
330.409 3.99568
330.479 4.17637
330.548 4.37008
330.613 4.56572
330.678 4.77503
330.744 5.00009
330.809 5.24182
330.899 5.60564
330.988 6.01094
331.033 6.23154
331.078 6.46475
331.123 6.71278
331.168 6.97582
331.213 7.25648
331.257 7.55518
331.302 7.87513
331.347 8.21705
331.392 8.58493
331.437 8.97998
331.482 9.40626
331.526 9.86759
331.559 10.2290
331.592 10.6121
331.624 11.0204
331.657 11.4561
331.690 11.9237
331.722 12.4233
331.755 12.9599
331.787 13.5374
331.820 14.1622
331.853 14.8356
331.885 15.5650
331.918 16.3568
331.951 17.2206
331.983 18.1592
332.016 19.1839
332.032 19.7315
332.048 20.3044
332.071 21.1392
332.093 22.0246
332.116 22.9726
332.138 23.9791
332.161 25.0578
332.183 26.2040
332.205 27.4275
332.228 28.7340
332.250 30.1357
332.273 31.6262
332.295 33.2180
332.318 34.9178
332.340 36.7411
332.362 38.6789
332.385 40.7466
332.407 42.9521
332.429 45.2059
332.450 47.5898
332.472 50.1212
332.493 52.8076
332.514 55.6564
332.536 58.6750
332.557 61.8710
332.579 65.2518
332.600 68.8247
332.621 72.5968
332.643 76.5750
332.664 80.7659
332.686 85.1759
332.707 89.8106
332.728 94.6754
332.750 99.7750
332.772 105.394
332.795 111.255
332.817 117.383
332.839 123.782
332.862 130.481
332.884 137.421
332.907 144.627
332.929 152.097
332.952 159.861
332.974 167.841
333.019 184.518
333.064 202.110
333.109 220.418
333.153 239.371
333.198 258.702
333.288 297.802
333.361 329.045
333.435 358.321
333.480 374.727
333.524 389.622
333.569 402.784
333.614 413.974
333.649 421.192
333.684 427.004
333.719 431.343
333.754 434.153
333.800 435.488
333.812 435.384
333.850 433.844
333.887 430.483
333.925 425.348
333.963 418.530
334.013 407.111
334.062 393.173
334.117 375.191
334.172 355.022
334.219 336.583
334.265 317.233
334.358 277.051
334.451 236.807
334.498 217.290
334.544 198.451
334.599 177.262
334.627 167.175
334.654 157.487
334.682 148.145
334.709 139.226
334.736 130.673
334.764 122.555
334.787 115.968
334.810 109.698
334.834 103.689
334.857 97.9895
334.880 92.5450
334.903 87.3970
334.927 82.4948
334.950 77.8734
334.973 73.4851
334.996 69.3593
335.020 65.4517
335.043 61.7868
335.066 58.3236
335.089 55.0825
335.113 52.0259
335.136 49.1706
335.159 46.4824
335.182 43.9751
335.206 41.6178
335.229 39.4218
335.252 37.3593
335.275 35.4395
335.299 33.6377
335.322 31.9615
335.345 30.3889
335.368 28.9261
335.392 27.5536
335.415 26.2768
335.438 25.0785
335.461 23.9630
335.485 22.9197
335.508 21.9434
335.528 21.1481
335.548 20.3965
335.588 19.0169
335.628 17.7777
335.668 16.6673
335.709 15.6645
335.749 14.7608
335.789 13.9397
335.829 13.1950
335.869 12.5140
335.909 11.8925
335.949 11.3205
335.990 10.7952
336.030 10.3088
336.070 9.85944
336.110 9.44114
336.150 9.05268
336.197 8.63449
336.243 8.24733
336.290 7.88791
336.336 7.55338
336.383 7.24130
336.429 6.94951
336.476 6.67617
336.522 6.41962
336.569 6.17841
336.615 5.95128
336.662 5.73707
336.708 5.53477
336.801 5.16232
336.894 4.82801
336.949 4.64572
337.004 4.47423
337.059 4.31209
337.114 4.15916
337.224 3.87718
337.334 3.62368
337.444 3.39486
337.553 3.18754
337.663 2.99904
337.773 2.82726
