Ge-70(n,tot) ENDFB-8.0
Energy(eV) XS(b)
1.00000E-05 249.430
1.03125E-05 245.648
1.06250E-05 242.034
1.09375E-05 238.577
1.12500E-05 235.265
1.15625E-05 232.088
1.18750E-05 229.038
1.21875E-05 226.107
1.25000E-05 223.286
1.28125E-05 220.570
1.31250E-05 217.951
1.34375E-05 215.425
1.37500E-05 212.985
1.43750E-05 208.347
1.50000E-05 204.004
1.56250E-05 199.924
1.62500E-05 196.083
1.68750E-05 192.458
1.75000E-05 189.030
1.81250E-05 185.781
1.87500E-05 182.697
1.93750E-05 179.764
2.00000E-05 176.970
2.09375E-05 173.017
2.18750E-05 169.322
2.28125E-05 165.858
2.37500E-05 162.603
2.46875E-05 159.536
2.56250E-05 156.639
2.65625E-05 153.898
2.75000E-05 151.300
2.84375E-05 148.831
2.93750E-05 146.483
3.03125E-05 144.245
3.12500E-05 142.109
3.21875E-05 140.068
3.31250E-05 138.115
3.40625E-05 136.243
3.50000E-05 134.448
3.59375E-05 132.724
3.68750E-05 131.066
3.78125E-05 129.472
3.87500E-05 127.935
3.96875E-05 126.454
4.06250E-05 125.026
4.25000E-05 122.312
4.43750E-05 119.774
4.62500E-05 117.393
4.81250E-05 115.155
5.00000E-05 113.044
5.15625E-05 111.375
5.31250E-05 109.781
5.46875E-05 108.257
5.62500E-05 106.797
5.78125E-05 105.397
5.93750E-05 104.054
6.09375E-05 102.763
6.25000E-05 101.522
6.40625E-05 100.327
6.56250E-05 99.1755
6.71875E-05 98.0650
6.87500E-05 96.9931
7.18750E-05 94.9565
7.50000E-05 93.0504
7.81250E-05 91.2617
8.12500E-05 89.5788
8.43750E-05 87.9917
8.75000E-05 86.4920
9.06250E-05 85.0718
9.37500E-05 83.7246
9.68750E-05 82.4443
0.000100000 81.2256
0.000103125 80.0638
0.000106250 78.9548
0.000109375 77.8946
0.000112500 76.8798
0.000115625 75.9073
0.000118750 74.9744
0.000121875 74.0784
0.000125000 73.2170
0.000128125 72.3881
0.000131250 71.5896
0.000134375 70.8199
0.000137500 70.0773
0.000143750 68.6672
0.000150000 67.3485
0.000156250 66.1120
0.000162500 64.9496
0.000168750 63.8542
0.000175000 62.8199
0.000181250 61.8412
0.000187500 60.9134
0.000193750 60.0324
0.000200000 59.1944
0.000209375 58.0110
0.000218750 56.9072
0.000228125 55.8746
0.000237500 54.9062
0.000246875 53.9956
0.000256250 53.1375
0.000265625 52.3272
0.000275000 51.5603
0.000284375 50.8334
0.000293750 50.1431
0.000303125 49.4866
0.000312500 48.8612
0.000321875 48.2646
0.000331250 47.6948
0.000340625 47.1498
0.000350000 46.6279
0.000359375 46.1276
0.000368750 45.6476
0.000378125 45.1864
0.000387500 44.7429
0.000396875 44.3162
0.000406250 43.9050
0.000425000 43.1262
0.000443750 42.4001
0.000462500 41.7211
0.000481250 41.0844
0.000500000 40.4861
0.000515625 40.0141
0.000531250 39.5644
0.000546875 39.1353
0.000562500 38.7254
0.000578125 38.3332
0.000593750 37.9576
0.000609375 37.5975
0.000625000 37.2518
0.000640625 36.9197
0.000656250 36.6004
0.000671875 36.2929
0.000687500 35.9968
0.000718750 35.4356
0.000750000 34.9123
0.000781250 34.4228
0.000812500 33.9638
0.000843750 33.5322
0.000875000 33.1257
0.000906250 32.7418
0.000937500 32.3786
0.000968750 32.0344
0.00100000 31.7075
0.00103125 31.3967
0.00106250 31.1007
0.00109375 30.8183
0.00112500 30.5486
0.00115625 30.2907
0.00118750 30.0438
0.00121875 29.8071
0.00125000 29.5799
0.00128125 29.3617
0.00131250 29.1519
0.00134375 28.9499
0.00137500 28.7554
0.00143750 28.3867
0.00150000 28.0430
0.00156250 27.7214
0.00162500 27.4198
0.00168750 27.1362
0.00175000 26.8690
0.00181250 26.6165
0.00187500 26.3777
0.00193750 26.1512
0.00200000 25.9360
0.00209375 25.6327
0.00218750 25.3502
0.00228125 25.0864
0.00237500 24.8393
0.00246875 24.6072
0.00256250 24.3887
0.00265625 24.1825
0.00275000 23.9875
0.00284375 23.8028
0.00293750 23.6275
0.00303125 23.4608
0.00312500 23.3021
0.00321875 23.1507
0.00331250 23.0061
0.00340625 22.8679
0.00350000 22.7355
0.00359375 22.6086
0.00368750 22.4868
0.00378125 22.3697
0.00387500 22.2572
0.00396875 22.1488
0.00406250 22.0444
0.00425000 21.8466
0.00443750 21.6620
0.00462500 21.4892
0.00481250 21.3271
0.00500000 21.1746
0.00515625 21.0542
0.00531250 20.9394
0.00546875 20.8297
0.00562500 20.7248
0.00578125 20.6244
0.00593750 20.5281
0.00609375 20.4357
0.00625000 20.3469
0.00640625 20.2615
0.00656250 20.1793
0.00671875 20.1001
0.00687500 20.0237
0.00718750 19.8787
0.00750000 19.7432
0.00781250 19.6162
0.00812500 19.4969
0.00843750 19.3845
0.00875000 19.2783
0.00906250 19.1779
0.00937500 19.0827
0.00968750 18.9923
0.0100000 18.9064
0.0103125 18.8244
0.0106250 18.7463
0.0109375 18.6716
0.0112500 18.6001
0.0115625 18.5316
0.0118750 18.4660
0.0121875 18.4029
0.0125000 18.3423
0.0128125 18.2840
0.0131250 18.2279
0.0134375 18.1737
0.0137500 18.1215
0.0143750 18.0224
0.0150000 17.9296
0.0156250 17.8427
0.0162500 17.7609
0.0168750 17.6838
0.0175000 17.6110
0.0181250 17.5421
0.0187500 17.4767
0.0193750 17.4146
0.0200000 17.3555
0.0206625 17.2959
0.0213250 17.2391
0.0219875 17.1850
0.0226500 17.1333
0.0233125 17.0839
0.0239750 17.0366
0.0246375 16.9912
0.0253000 16.9477
0.0264578 16.8757
0.0276156 16.8084
0.0287734 16.7452
0.0299313 16.6858
0.0310891 16.6299
0.0322469 16.5770
0.0334047 16.5269
0.0345625 16.4795
0.0355274 16.4417
0.0364922 16.4055
0.0374570 16.3707
0.0384219 16.3373
0.0393867 16.3051
0.0403516 16.2740
0.0413164 16.2441
0.0422813 16.2153
0.0442109 16.1604
0.0461406 16.1091
0.0480703 16.0610
0.0500000 16.0157
0.0515625 15.9810
0.0531250 15.9478
0.0546875 15.9160
0.0562500 15.8856
0.0578125 15.8565
0.0593750 15.8285
0.0609375 15.8017
0.0625000 15.7758
0.0640625 15.7510
0.0656250 15.7270
0.0671875 15.7039
0.0687500 15.6816
0.0718750 15.6392
0.0750000 15.5995
0.0781250 15.5622
0.0812500 15.5271
0.0843750 15.4940
0.0875000 15.4627
0.0906250 15.4330
0.0937500 15.4048
0.0968750 15.3781
0.100000 15.3526
0.103125 15.3283
0.106250 15.3050
0.109375 15.2828
0.112500 15.2615
0.115625 15.2411
0.118750 15.2215
0.121875 15.2027
0.125000 15.1846
0.128125 15.1671
0.131250 15.1503
0.134375 15.1341
0.137500 15.1185
0.143750 15.0887
0.150000 15.0608
0.156250 15.0346
0.162500 15.0100
0.168750 14.9867
0.175000 14.9646
0.181250 14.9438
0.187500 14.9239
0.193750 14.9051
0.200000 14.8871
0.209375 14.8617
0.218750 14.8379
0.228125 14.8156
0.237500 14.7946
0.246875 14.7748
0.256250 14.7561
0.265625 14.7384
0.275000 14.7216
0.284375 14.7056
0.293750 14.6904
0.303125 14.6759
0.312500 14.6620
0.321875 14.6488
0.331250 14.6361
0.340625 14.6239
0.350000 14.6122
0.359375 14.6010
0.368750 14.5902
0.378125 14.5797
0.387500 14.5697
0.396875 14.5600
0.406250 14.5507
0.425000 14.5329
0.443750 14.5162
0.462500 14.5005
0.500000 14.4717
0.531250 14.4500
0.562500 14.4301
0.593750 14.4117
0.625000 14.3946
0.687500 14.3638
0.750000 14.3368
0.812500 14.3128
0.875000 14.2912
0.937500 14.2717
1.00000 14.2538
1.06250 14.2374
1.12500 14.2222
1.18750 14.2081
1.25000 14.1949
1.37500 14.1710
1.50000 14.1497
1.62500 14.1305
1.75000 14.1130
1.87500 14.0970
2.00000 14.0821
2.18750 14.0617
2.37500 14.0432
2.56250 14.0261
2.75000 14.0103
2.93750 13.9956
3.12500 13.9817
3.31250 13.9686
3.50000 13.9561
3.87500 13.9328
4.25000 13.9113
4.62500 13.8913
5.00000 13.8723
5.31250 13.8573
5.62500 13.8428
5.93750 13.8288
6.25000 13.8153
6.87500 13.7893
7.50000 13.7645
8.12500 13.7408
8.75000 13.7178
9.37500 13.6956
10.0000 13.6739
10.6250 13.6527
11.2500 13.6320
11.8750 13.6117
12.5000 13.5917
13.7500 13.5526
15.0000 13.5146
16.2500 13.4774
17.5000 13.4410
18.7500 13.4052
20.0000 13.3700
21.8750 13.3182
23.7500 13.2673
25.6250 13.2173
27.5000 13.1681
29.3750 13.1196
31.2500 13.0718
33.1250 13.0247
35.0000 12.9781
36.8750 12.9321
38.7500 12.8866
42.5000 12.7971
46.2500 12.7095
50.0000 12.6237
53.1250 12.5534
56.2500 12.4842
59.3750 12.4161
62.5000 12.3490
65.6250 12.2828
68.7500 12.2177
71.8750 12.1534
75.0000 12.0900
81.2500 11.9659
87.5000 11.8451
93.7500 11.7274
100.000 11.6127
106.250 11.5009
112.500 11.3918
118.750 11.2854
125.000 11.1814
131.250 11.0799
137.500 10.9807
143.750 10.8838
150.000 10.7890
156.250 10.6962
162.500 10.6055
168.750 10.5167
175.000 10.4298
187.500 10.2612
200.000 10.0993
209.375 9.98193
218.750 9.86793
228.125 9.75710
237.500 9.64928
246.875 9.54432
256.250 9.44209
265.625 9.34245
275.000 9.24529
284.375 9.15048
293.750 9.05792
303.125 8.96751
312.500 8.87915
331.250 8.70816
350.000 8.54423
368.750 8.38673
387.500 8.23507
406.250 8.08868
425.000 7.94706
443.750 7.80972
462.500 7.67620
481.250 7.54608
500.000 7.41892
515.625 7.31494
531.250 7.21251
546.875 7.11140
562.500 7.01138
578.125 6.91222
593.750 6.81369
609.375 6.71553
625.000 6.61750
640.625 6.51934
654.297 6.43308
667.969 6.34629
681.641 6.25874
695.313 6.17024
708.984 6.08053
722.656 5.98937
736.328 5.89648
750.000 5.80148
762.695 5.71073
775.391 5.61747
781.738 5.57034
788.086 5.52199
800.781 5.42267
813.477 5.31976
826.172 5.21235
838.867 5.09995
845.215 5.04178
851.563 4.98208
857.422 4.92530
863.281 4.86707
869.141 4.80741
875.000 4.74614
883.789 4.65045
892.578 4.55013
896.973 4.49825
901.367 4.44478
905.762 4.39041
910.156 4.33385
914.551 4.27648
918.945 4.21671
923.340 4.15574
927.734 4.09264
932.129 4.02805
936.524 3.96102
940.918 3.89177
945.313 3.82017
950.684 3.72916
956.055 3.63423
961.426 3.53498
966.797 3.43093
972.168 3.32201
977.539 3.20749
980.225 3.14813
982.910 3.08707
985.596 3.02453
988.281 2.96042
992.188 2.86393
996.094 2.76396
1000.00 2.65955
1000.00 2.65953
1000.01 2.65942
1000.01 2.65931
1000.02 2.65912
1000.03 2.65874
1000.06 2.65797
1000.11 2.65644
1000.23 2.65336
1000.45 2.64717
1000.91 2.63476
1001.81 2.60979
1003.62 2.55911
1007.23 2.45486
1010.84 2.34658
1014.45 2.23411
1018.07 2.11727
1021.68 1.99595
1023.49 1.93355
1025.29 1.87004
1027.10 1.80533
1028.91 1.73951
1030.71 1.67250
1032.52 1.60441
1034.33 1.53518
1036.13 1.46492
1037.94 1.39361
1039.75 1.32139
1041.55 1.24828
1043.36 1.17446
1045.17 1.09999
1046.97 1.02513
1048.78 0.950009
1050.58 0.874983
1052.39 0.800294
1054.20 0.726427
1056.00 0.653795
1057.81 0.583086
1059.62 0.514964
1060.52 0.482149
1061.42 0.450385
1062.33 0.419750
1063.23 0.390474
1064.13 0.362706
1064.59 0.349435
1065.04 0.336647
1065.49 0.324314
1065.94 0.312496
1066.39 0.301226
1066.84 0.290559
1067.30 0.280485
1067.75 0.271086
1068.20 0.262360
1068.65 0.254389
1069.10 0.247181
1069.55 0.240803
1070.01 0.235305
1070.46 0.230748
1070.91 0.227170
1071.36 0.224645
1071.81 0.223224
1072.04 0.222952
1072.26 0.222982
1072.49 0.223323
1072.72 0.223986
1072.83 0.224442
1072.94 0.224981
1073.05 0.225605
1073.17 0.226316
1073.22 0.226707
1073.28 0.227114
1073.34 0.227551
1073.39 0.228002
1073.45 0.228483
1073.51 0.228979
1073.56 0.229507
1073.59 0.229775
1073.62 0.230049
1073.65 0.230338
1073.68 0.230624
1073.70 0.230915
1073.73 0.231212
1073.76 0.231525
1073.79 0.231834
1073.85 0.232468
1073.90 0.233139
1073.96 0.233821
1074.01 0.234528
1074.07 0.235258
1074.13 0.236026
1074.18 0.236806
1074.30 0.238454
1074.41 0.240203
1074.52 0.242055
1074.64 0.244013
1074.75 0.246076
1074.97 0.250506
1075.20 0.255400
1075.43 0.260750
1075.65 0.266571
1075.88 0.272847
1076.10 0.279650
1076.33 0.286968
1076.55 0.294815
1076.78 0.303208
1077.01 0.312164
1077.23 0.321699
1077.46 0.331831
1077.68 0.342529
1077.91 0.353908
1078.14 0.365940
1078.36 0.378645
1078.59 0.391983
1078.81 0.406094
1079.04 0.420943
1079.26 0.436551
1079.49 0.452869
1079.72 0.470066
1079.94 0.488096
1080.17 0.506985
1080.39 0.526760
1080.62 0.547449
1080.85 0.569081
1081.07 0.591685
1081.30 0.615186
1081.52 0.639825
1081.75 0.665532
1081.97 0.692341
1082.20 0.720162
1082.43 0.749279
1082.65 0.779609
1082.88 0.811190
1083.10 0.843916
1083.33 0.878120
1083.55 0.913702
1083.78 0.950709
1084.01 0.989188
1084.23 1.02919
1084.46 1.07076
1084.68 1.11395
1084.91 1.15862
1085.14 1.20522
1085.36 1.25362
1085.59 1.30387
1085.81 1.35580
1086.26 1.46615
1086.72 1.58472
1087.17 1.71266
1087.62 1.85036
1088.07 1.99853
1088.52 2.15758
1088.97 2.32905
1089.43 2.51350
1089.88 2.71192
1090.33 2.92491
1090.78 3.15456
1091.23 3.40172
1091.69 3.66778
1092.14 3.95361
1092.59 4.26214
1093.04 4.59387
1093.49 4.95226
1093.94 5.33795
1094.39 5.75510
1094.85 6.20559
1095.30 6.69243
1095.75 7.21771
1096.20 7.78745
1096.65 8.40319
1097.10 9.07222
1097.56 9.79664
1098.01 10.5854
1098.46 11.4432
1098.91 12.3773
1099.36 13.3935
1099.81 14.5052
1100.27 15.7180
1100.72 17.0488
1101.17 18.5049
1101.39 19.2875
1101.62 20.1082
1101.85 20.9691
1102.07 21.8728
1102.30 22.8218
1102.52 23.8188
1102.75 24.8669
1102.98 25.9643
1103.20 27.1241
1103.43 28.3454
1103.65 29.6321
1103.88 30.9824
1104.10 32.4130
1104.33 33.9231
1104.56 35.5182
1104.78 37.1966
1105.01 38.9796
1105.23 40.8670
1105.46 42.8664
1105.69 44.9862
1105.91 47.2355
1106.14 49.6241
1106.36 52.1629
1106.59 54.8516
1106.81 57.7268
1107.04 60.7915
1107.27 64.0614
1107.49 67.5379
1107.72 71.2709
1107.94 75.2666
1108.17 79.5487
1108.39 84.1219
1108.62 89.0558
1108.85 94.3628
1109.07 100.079
1109.30 106.244
1109.52 112.904
1109.75 120.108
1109.98 127.913
1110.20 136.344
1110.43 145.547
1110.65 155.568
1110.88 166.500
1111.10 178.392
1111.33 191.468
1111.56 205.814
1111.78 221.586
1112.01 238.881
1112.23 258.057
1112.35 268.395
1112.46 279.275
1112.57 290.732
1112.69 302.804
1112.80 315.531
1112.91 328.956
1113.02 343.126
1113.14 358.089
1113.25 373.899
1113.36 390.613
1113.48 408.292
1113.59 427.001
1113.70 446.811
1113.81 467.605
1113.93 489.833
1114.04 513.400
1114.15 538.395
1114.27 564.914
1114.38 593.056
1114.49 622.928
1114.61 654.639
1114.72 687.995
1114.83 723.710
1114.94 761.613
1115.06 801.824
1115.17 844.461
1115.28 889.636
1115.40 937.456
1115.51 988.013
1115.62 1040.90
1115.77 1115.62
1115.92 1195.34
1116.07 1279.97
1116.22 1368.60
1116.36 1461.92
1116.51 1558.58
1116.81 1756.45
1116.96 1855.04
1117.11 1950.36
1117.26 2039.93
1117.41 2120.54
1117.55 2190.60
1117.70 2247.02
1117.85 2287.68
1118.00 2310.98
1118.15 2316.50
1118.30 2304.10
1118.45 2274.69
1118.60 2230.21
1118.74 2172.17
1118.89 2103.25
1119.04 2025.99
1119.19 1943.44
1119.49 1768.40
1119.79 1593.71
1119.93 1509.09
1120.08 1427.56
1120.23 1349.62
1120.38 1276.05
1120.55 1195.11
1120.73 1120.09
1120.90 1049.99
1121.07 985.437
1121.24 925.396
1121.42 870.263
1121.59 819.078
1121.76 772.116
1121.93 728.517
1122.11 688.491
1122.28 651.292
1122.45 617.091
1122.62 585.249
1122.80 555.916
1122.97 528.549
1123.14 503.280
1123.31 479.648
1123.49 457.776
1123.66 437.272
1123.83 418.247
1124.00 400.368
1124.18 383.740
1124.35 368.075
1124.52 353.470
1124.69 339.679
1124.87 326.793
1125.04 314.597
1125.21 303.175
1125.38 292.342
1125.56 282.176
1125.73 272.568
1125.90 263.479
1126.07 254.823
1126.24 246.668
1126.42 238.888
1126.59 231.544
1126.93 217.890
1127.28 205.520
1127.62 194.280
1127.97 184.033
1128.31 174.667
1128.66 166.082
1129.00 158.193
1129.35 150.926
1129.69 144.215
1130.04 138.006
1130.38 132.247
1130.73 126.897
1131.07 121.916
1131.42 117.283
1131.76 112.942
1132.11 108.879
1132.45 105.070
1132.80 101.496
1133.14 98.1345
1133.49 94.9703
1133.83 91.9874
1134.18 89.1718
1134.52 86.5107
1134.87 83.9928
1135.21 81.6075
1135.56 79.3454
1135.90 77.1979
1136.25 75.1571
1136.94 71.3723
1137.63 67.9296
1138.32 64.7917
1139.01 61.9223
1139.70 59.2941
1140.39 56.8728
1141.08 54.6396
1141.77 52.5745
1142.46 50.6631
1143.15 48.8847
1143.84 47.2289
1144.53 45.6843
1145.22 44.2406
1145.91 42.8887
1146.60 41.6206
1147.29 40.4291
1147.97 39.3094
1148.66 38.2526
1149.35 37.2551
1150.04 36.3124
1150.73 35.4202
1151.42 34.5748
1152.11 33.7728
1152.80 33.0111
1153.49 32.2879
1154.18 31.5984
1154.87 30.9415
1155.56 30.3149
1156.25 29.7167
1157.63 28.5985
1159.01 27.5748
1160.39 26.6330
1161.77 25.7654
1163.15 24.9627
1164.53 24.2191
1165.91 23.5276
1167.29 22.8835
1168.67 22.2823
1170.05 21.7202
1171.43 21.1931
1172.81 20.6980
1174.19 20.2324
1175.57 19.7939
1176.95 19.3798
1178.33 18.9884
1179.71 18.6179
1181.09 18.2670
1182.47 17.9337
1183.85 17.6172
1185.23 17.3159
1186.61 17.0290
1187.99 16.7552
1189.37 16.4939
1190.75 16.2442
1192.12 16.0055
1194.88 15.5579
1197.64 15.1461
1200.40 14.7658
1203.16 14.4139
1205.92 14.0872
1208.68 13.7830
1211.44 13.4990
1214.20 13.2334
1216.96 12.9842
1219.72 12.7501
1222.48 12.5297
1225.24 12.3217
1228.00 12.1252
1230.75 11.9391
1233.51 11.7626
1236.27 11.5949
1239.03 11.4354
1241.79 11.2835
1244.55 11.1385
1247.31 11.0001
1250.07 10.8677
1252.83 10.7408
1255.59 10.6191
1258.35 10.5024
1261.11 10.3901
1263.87 10.2821
1269.39 10.0778
1274.90 9.88746
1280.42 9.70939
1285.94 9.54221
1291.46 9.38461
1296.98 9.23554
1302.50 9.09397
1308.02 8.95905
1313.54 8.83000
1319.05 8.70612
1324.57 8.58671
1330.09 8.47115
1335.61 8.35886
1341.13 8.24929
1346.65 8.14182
1352.17 8.03592
1357.69 7.93098
1363.20 7.82642
1368.72 7.72152
1371.48 7.66872
1374.24 7.61557
1377.00 7.56191
1379.76 7.50769
1382.52 7.45274
1385.28 7.39693
1388.04 7.34008
1390.80 7.28207
1393.56 7.22267
1396.32 7.16170
1399.08 7.09888
1401.83 7.03400
1404.59 6.96671
1407.35 6.89668
1410.11 6.82347
1411.49 6.78553
1412.87 6.74666
1414.25 6.70671
1415.63 6.66567
1417.01 6.62340
1418.39 6.57986
1419.77 6.53489
1421.15 6.48842
1422.53 6.44032
1423.91 6.39050
1425.29 6.33873
1426.67 6.28494
1428.05 6.22887
1429.43 6.17039
1430.81 6.10921
1432.19 6.04512
1433.57 5.97785
1434.95 5.90713
1436.33 5.83252
1437.71 5.75366
1439.09 5.67012
1439.78 5.62643
1440.46 5.58145
1441.15 5.53495
1441.84 5.48692
1442.53 5.43729
1443.22 5.38595
1443.91 5.33281
1444.60 5.27775
1445.29 5.22067
1445.98 5.16152
1446.67 5.10000
1447.36 5.03605
1448.05 4.96951
1448.74 4.90032
1449.43 4.82808
1450.12 4.75271
1450.81 4.67398
1451.50 4.59178
1452.19 4.50563
1452.88 4.41536
1453.57 4.32068
1454.26 4.22128
1454.95 4.11680
1455.64 4.00688
1455.99 3.94976
1456.33 3.89113
1456.68 3.83094
1457.02 3.76931
1457.37 3.70584
1457.71 3.64065
1458.06 3.57368
1458.40 3.50487
1458.75 3.43417
1459.09 3.36153
1459.44 3.28691
1459.78 3.21047
1460.12 3.13173
1460.47 3.05089
1460.81 2.96792
1461.16 2.88280
1461.50 2.79555
1461.85 2.70621
1462.19 2.61482
1462.54 2.52176
1462.88 2.42664
1463.23 2.32994
1463.57 2.23193
1463.92 2.13301
1464.26 2.03371
1464.61 1.93470
1464.78 1.88545
1464.95 1.83692
1465.13 1.78871
1465.30 1.74156
1465.47 1.69514
1465.64 1.65021
1465.82 1.60654
1465.99 1.56495
1466.16 1.52532
1466.33 1.48853
1466.51 1.45465
1466.68 1.42461
1466.85 1.39874
1467.02 1.37806
1467.20 1.36322
1467.37 1.35541
1467.54 1.35570
1467.71 1.36549
1467.89 1.38635
1467.97 1.40151
1468.06 1.42017
1468.14 1.44290
1468.23 1.46950
1468.27 1.48444
1468.32 1.50054
1468.36 1.51785
1468.40 1.53641
1468.45 1.55676
1468.47 1.56746
1468.49 1.57801
1468.51 1.58944
1468.53 1.60069
1468.55 1.61286
1468.58 1.62485
1468.60 1.63780
1468.62 1.65054
1468.64 1.66430
1468.66 1.67784
1468.68 1.69245
1468.70 1.70681
1468.73 1.72230
1468.75 1.73753
1468.77 1.75394
1468.79 1.77084
1468.83 1.80531
1468.88 1.84176
1468.92 1.88027
1468.96 1.92093
1469.01 1.96384
1469.05 2.00910
1469.09 2.05680
1469.18 2.16126
1469.27 2.27575
1469.35 2.40245
1469.44 2.54248
1469.52 2.69901
1469.61 2.86984
1469.70 3.05823
1469.74 3.15955
1469.78 3.26592
1469.83 3.38026
1469.87 3.49762
1469.91 3.62083
1469.96 3.75017
1470.00 3.88595
1470.04 4.02851
1470.08 4.17818
1470.13 4.33533
1470.17 4.50429
1470.21 4.67780
1470.26 4.86003
1470.30 5.05147
1470.34 5.25259
1470.39 5.46393
1470.43 5.68605
1470.47 5.91954
1470.52 6.16504
1470.56 6.42322
1470.60 6.69480
1470.64 6.98056
1470.69 7.28132
1470.73 7.59796
1470.77 7.93141
1470.82 8.28269
1470.86 8.66172
1470.90 9.05244
1470.95 9.46450
1470.99 9.89923
1471.03 10.3581
1471.08 10.8425
1471.12 11.3543
1471.16 11.8952
1471.21 12.4809
1471.25 13.0868
1471.29 13.7281
1471.33 14.4073
1471.38 15.1271
1471.42 15.8903
1471.46 16.7000
1471.51 17.5598
1471.55 18.4950
1471.59 19.4674
1471.64 20.5020
1471.68 21.6037
1471.72 22.7775
1471.77 24.0294
1471.81 25.3656
1471.85 26.7931
1471.90 28.3563
1471.94 29.9927
1471.98 31.7459
1472.02 33.6264
1472.07 35.6454
1472.11 37.8157
1472.15 40.1513
1472.20 42.6679
1472.24 45.4485
1472.28 48.3867
1472.33 51.5652
1472.37 55.0087
1472.41 58.7447
1472.46 62.8045
1472.50 67.2232
1472.54 72.0408
1472.59 77.4305
1472.63 83.2000
1472.67 89.5251
1472.71 96.4732
1472.74 100.294
1472.76 104.121
1472.78 108.333
1472.80 112.558
1472.82 117.212
1472.84 121.886
1472.87 127.040
1472.89 132.222
1472.91 137.943
1472.93 143.984
