Se-78(n,g) ENDFB-8.0
Energy(eV) XS(b)
1.00000E-05 21.6292
1.03125E-05 21.2990
1.06250E-05 20.9834
1.09375E-05 20.6815
1.12500E-05 20.3922
1.15625E-05 20.1147
1.18750E-05 19.8483
1.21875E-05 19.5922
1.25000E-05 19.3457
1.28125E-05 19.1084
1.31250E-05 18.8795
1.34375E-05 18.6587
1.37500E-05 18.4454
1.43750E-05 18.0400
1.50000E-05 17.6602
1.56250E-05 17.3034
1.62500E-05 16.9673
1.68750E-05 16.6502
1.75000E-05 16.3501
1.81250E-05 16.0658
1.87500E-05 15.7957
1.93750E-05 15.5389
2.00000E-05 15.2942
2.09375E-05 14.9478
2.18750E-05 14.6240
2.28125E-05 14.3204
2.37500E-05 14.0349
2.46875E-05 13.7658
2.56250E-05 13.5117
2.65625E-05 13.2711
2.75000E-05 13.0429
2.84375E-05 12.8261
2.93750E-05 12.6198
3.03125E-05 12.4231
3.12500E-05 12.2353
3.21875E-05 12.0558
3.31250E-05 11.8840
3.40625E-05 11.7193
3.50000E-05 11.5613
3.59375E-05 11.4095
3.68750E-05 11.2635
3.78125E-05 11.1230
3.87500E-05 10.9876
3.96875E-05 10.8571
4.06250E-05 10.7311
4.25000E-05 10.4917
4.43750E-05 10.2677
4.62500E-05 10.0574
4.81250E-05 9.85950
5.00000E-05 9.67287
5.15625E-05 9.52518
5.31250E-05 9.38406
5.46875E-05 9.24903
5.62500E-05 9.11967
5.78125E-05 8.99559
5.93750E-05 8.87643
6.09375E-05 8.76189
6.25000E-05 8.65168
6.40625E-05 8.54552
6.56250E-05 8.44317
6.71875E-05 8.34442
6.87500E-05 8.24905
7.18750E-05 8.06773
7.50000E-05 7.89786
7.81250E-05 7.73830
8.12500E-05 7.58802
8.43750E-05 7.44618
8.75000E-05 7.31200
9.06250E-05 7.18483
9.37500E-05 7.06406
9.68750E-05 6.94919
0.000100000 6.83975
0.000103125 6.73532
0.000106250 6.63553
0.000109375 6.54005
0.000112500 6.44858
0.000115625 6.36084
0.000118750 6.27659
0.000121875 6.19560
0.000125000 6.11766
0.000128125 6.04259
0.000131250 5.97022
0.000134375 5.90040
0.000137500 5.83296
0.000143750 5.70475
0.000150000 5.58463
0.000156250 5.47180
0.000162500 5.36554
0.000168750 5.26524
0.000175000 5.17037
0.000181250 5.08044
0.000187500 4.99505
0.000193750 4.91382
0.000200000 4.83644
0.000209375 4.72692
0.000218750 4.62452
0.000228125 4.52850
0.000237500 4.43822
0.000246875 4.35313
0.000256250 4.27276
0.000265625 4.19668
0.000275000 4.12453
0.000284375 4.05597
0.000293750 3.99072
0.000303125 3.92853
0.000312500 3.86915
0.000321875 3.81239
0.000331250 3.75805
0.000340625 3.70597
0.000350000 3.65600
0.000359375 3.60800
0.000368750 3.56184
0.000378125 3.51741
0.000387500 3.47460
0.000396875 3.43332
0.000406250 3.39347
0.000425000 3.31777
0.000443750 3.24692
0.000462500 3.18042
0.000481250 3.11785
0.000500000 3.05883
0.000515625 3.01213
0.000531250 2.96751
0.000546875 2.92481
0.000562500 2.88390
0.000578125 2.84466
0.000593750 2.80698
0.000609375 2.77076
0.000625000 2.73591
0.000640625 2.70234
0.000656250 2.66997
0.000671875 2.63874
0.000687500 2.60859
0.000718750 2.55125
0.000750000 2.49753
0.000781250 2.44707
0.000812500 2.39955
0.000843750 2.35470
0.000875000 2.31227
0.000906250 2.27205
0.000937500 2.23386
0.000968750 2.19754
0.00100000 2.16293
0.00103125 2.12990
0.00106250 2.09835
0.00109375 2.06816
0.00112500 2.03923
0.00115625 2.01148
0.00118750 1.98484
0.00121875 1.95923
0.00125000 1.93458
0.00128125 1.91085
0.00131250 1.88796
0.00134375 1.86588
0.00137500 1.84455
0.00143750 1.80401
0.00150000 1.76603
0.00156250 1.73034
0.00162500 1.69674
0.00168750 1.66502
0.00175000 1.63502
0.00181250 1.60658
0.00187500 1.57958
0.00193750 1.55390
0.00200000 1.52942
0.00209375 1.49479
0.00218750 1.46241
0.00228125 1.43204
0.00237500 1.40349
0.00246875 1.37659
0.00256250 1.35117
0.00265625 1.32711
0.00275000 1.30429
0.00284375 1.28261
0.00293750 1.26198
0.00303125 1.24231
0.00312500 1.22353
0.00321875 1.20558
0.00331250 1.18840
0.00340625 1.17193
0.00350000 1.15613
0.00359375 1.14095
0.00368750 1.12635
0.00378125 1.11230
0.00387500 1.09877
0.00396875 1.08571
0.00406250 1.07311
0.00425000 1.04917
0.00443750 1.02677
0.00462500 1.00574
0.00481250 0.985951
0.00500000 0.967288
0.00515625 0.952519
0.00531250 0.938407
0.00546875 0.924904
0.00562500 0.911968
0.00578125 0.899560
0.00593750 0.887645
0.00609375 0.876191
0.00625000 0.865170
0.00640625 0.854554
0.00656250 0.844320
0.00671875 0.834444
0.00687500 0.824908
0.00718750 0.806776
0.00750000 0.789789
0.00781250 0.773832
0.00812500 0.758804
0.00843750 0.744619
0.00875000 0.731201
0.00906250 0.718484
0.00937500 0.706407
0.00968750 0.694920
0.0100000 0.683975
0.0103125 0.673532
0.0106250 0.663553
0.0109375 0.654006
0.0112500 0.644858
0.0115625 0.636085
0.0118750 0.627660
0.0121875 0.619561
0.0125000 0.611768
0.0128125 0.604262
0.0131250 0.597026
0.0134375 0.590044
0.0137500 0.583301
0.0143750 0.570480
0.0150000 0.558470
0.0156250 0.547187
0.0162500 0.536561
0.0168750 0.526531
0.0175000 0.517042
0.0181250 0.508049
0.0187500 0.499509
0.0193750 0.491386
0.0200000 0.483646
0.0206625 0.475828
0.0213250 0.468378
0.0219875 0.461267
0.0226500 0.454470
0.0233125 0.447966
0.0239750 0.441733
0.0246375 0.435753
0.0253000 0.430010
0.0264578 0.420496
0.0276156 0.411588
0.0287734 0.403224
0.0299313 0.395350
0.0310891 0.387921
0.0322469 0.380895
0.0334047 0.374238
0.0345625 0.367918
0.0355274 0.362889
0.0364922 0.358061
0.0374570 0.353419
0.0384219 0.348954
0.0393867 0.344653
0.0403516 0.340507
0.0413164 0.336508
0.0422813 0.332645
0.0442109 0.325303
0.0461406 0.318427
0.0480703 0.311969
0.0500000 0.305889
0.0515625 0.301218
0.0531250 0.296754
0.0546875 0.292484
0.0562500 0.288393
0.0578125 0.284469
0.0593750 0.280701
0.0609375 0.277080
0.0625000 0.273596
0.0640625 0.270240
0.0656250 0.267005
0.0671875 0.263884
0.0687500 0.260869
0.0718750 0.255138
0.0750000 0.249768
0.0781250 0.244723
0.0812500 0.239970
0.0843750 0.235484
0.0875000 0.231240
0.0906250 0.227217
0.0937500 0.223397
0.0968750 0.219764
0.100000 0.216302
0.103125 0.213000
0.106250 0.209844
0.109375 0.206824
0.112500 0.203931
0.115625 0.201156
0.118750 0.198492
0.121875 0.195931
0.125000 0.193467
0.128125 0.191094
0.131250 0.188807
0.134375 0.186601
0.137500 0.184470
0.143750 0.180419
0.150000 0.176622
0.156250 0.173054
0.162500 0.169693
0.168750 0.166521
0.175000 0.163520
0.181250 0.160676
0.187500 0.157976
0.193750 0.155409
0.200000 0.152964
0.209375 0.149503
0.218750 0.146265
0.228125 0.143228
0.237500 0.140372
0.246875 0.137681
0.256250 0.135139
0.265625 0.132733
0.275000 0.130451
0.284375 0.128282
0.293750 0.126219
0.303125 0.124252
0.312500 0.122374
0.321875 0.120579
0.331250 0.118861
0.340625 0.117214
0.350000 0.115634
0.359375 0.114116
0.368750 0.112657
0.378125 0.111252
0.387500 0.109899
0.396875 0.108596
0.406250 0.107338
0.425000 0.104948
0.443750 0.102708
0.462500 0.100605
0.500000 0.0967665
0.531250 0.0938837
0.562500 0.0912387
0.593750 0.0888052
0.625000 0.0865567
0.687500 0.0825295
0.750000 0.0790174
0.812500 0.0759191
0.875000 0.0731672
0.937500 0.0706948
1.00000 0.0684505
1.06250 0.0664075
1.12500 0.0645375
1.18750 0.0628174
1.25000 0.0612282
1.37500 0.0583817
1.50000 0.0558994
1.62500 0.0537097
1.75000 0.0517641
1.87500 0.0500164
2.00000 0.0484287
2.18750 0.0463091
2.37500 0.0444480
2.56250 0.0427955
2.75000 0.0413182
2.93750 0.0399849
3.12500 0.0387706
3.31250 0.0376612
3.50000 0.0366423
3.87500 0.0348317
4.25000 0.0332670
4.62500 0.0318971
5.00000 0.0306860
5.31250 0.0297768
5.62500 0.0289434
5.93750 0.0281770
6.25000 0.0274689
6.87500 0.0262012
7.50000 0.0250960
8.12500 0.0241215
8.75000 0.0232549
9.37500 0.0224770
10.0000 0.0217725
10.6250 0.0211316
11.2500 0.0205453
11.8750 0.0200062
12.5000 0.0195084
13.7500 0.0186176
15.0000 0.0178417
16.2500 0.0171582
17.5000 0.0165507
18.7500 0.0160059
20.0000 0.0155132
21.8750 0.0148563
23.7500 0.0142807
25.6250 0.0137710
27.5000 0.0133160
29.3750 0.0129067
31.2500 0.0125358
33.1250 0.0121981
35.0000 0.0118892
38.7500 0.0113433
42.5000 0.0108758
46.2500 0.0104704
50.0000 0.0101157
53.1250 0.00985237
56.2500 0.00961386
59.3750 0.00939713
62.5000 0.00919953
68.7500 0.00885332
75.0000 0.00856163
81.2500 0.00831465
87.5000 0.00810530
93.7500 0.00792809
100.000 0.00777880
106.250 0.00765445
112.500 0.00755268
118.750 0.00747169
125.000 0.00741015
134.375 0.00735420
143.750 0.00733440
150.000 0.00734437
156.250 0.00737209
162.500 0.00741801
168.750 0.00748288
175.000 0.00756771
181.250 0.00767380
187.500 0.00780281
193.750 0.00795679
200.000 0.00813821
207.495 0.00839872
211.243 0.00854385
214.990 0.00870783
222.485 0.00907216
229.980 0.00951105
233.727 0.00975642
237.475 0.0100312
241.222 0.0103245
244.970 0.0106446
248.717 0.0110025
252.464 0.0113851
256.212 0.0118072
259.959 0.0122671
263.885 0.0128060
267.811 0.0134010
271.737 0.0140622
275.663 0.0148029
279.589 0.0156264
283.515 0.0165557
285.478 0.0170604
287.441 0.0176030
291.367 0.0187833
294.579 0.0198740
297.791 0.0210924
299.397 0.0217517
301.003 0.0224569
302.609 0.0231923
304.215 0.0239902
305.821 0.0248193
307.427 0.0257203
309.033 0.0266661
310.639 0.0276822
312.245 0.0287525
313.851 0.0299114
315.457 0.0311537
317.063 0.0324874
319.026 0.0342563
320.989 0.0361931
322.952 0.0383220
324.915 0.0406704
326.878 0.0432651
328.841 0.0461473
330.804 0.0493583
332.767 0.0529473
334.552 0.0565968
335.444 0.0585742
336.336 0.0606699
337.228 0.0628825
338.121 0.0652312
339.013 0.0677248
339.905 0.0703672
340.797 0.0731867
341.690 0.0761839
342.582 0.0793794
343.474 0.0828008
344.366 0.0864494
345.259 0.0903569
346.151 0.0945207
347.043 0.0990273
348.025 0.104391
349.006 0.110223
349.988 0.116580
350.969 0.123527
351.950 0.131140
352.932 0.139507
353.913 0.148731
354.895 0.158933
355.876 0.170259
356.858 0.182879
357.349 0.189738
357.839 0.196999
358.330 0.204697
358.821 0.212867
359.312 0.221550
359.802 0.230786
360.293 0.240629
360.784 0.251127
361.275 0.262345
361.765 0.274346
362.256 0.287207
362.747 0.301003
363.282 0.317208
363.817 0.334760
364.353 0.353884
364.888 0.374749
365.423 0.397557
365.959 0.422543
366.494 0.450004
367.029 0.480268
367.520 0.510821
368.011 0.544421
368.502 0.581503
368.992 0.622550
369.483 0.668168
369.729 0.692903
369.974 0.719043
370.219 0.746719
370.465 0.776030
370.710 0.807134
370.955 0.840152
371.357 0.898804
371.758 0.963871
372.160 1.03634
372.361 1.07572
372.561 1.11738
372.762 1.16153
372.963 1.20833
373.164 1.25805
373.364 1.31088
373.565 1.36716
373.766 1.42718
373.967 1.49133
374.167 1.55994
374.413 1.65056
374.658 1.74942
374.904 1.85752
375.149 1.97602
375.394 2.10640
375.640 2.25024
375.885 2.40947
376.130 2.58628
376.292 2.71387
376.454 2.85111
376.616 2.99912
376.777 3.15907
376.939 3.33241
377.020 3.42455
377.101 3.52048
377.182 3.62067
377.263 3.72513
377.343 3.83436
377.424 3.94840
377.486 4.03854
377.547 4.13169
377.608 4.22830
377.670 4.32822
377.731 4.43195
377.792 4.53932
377.854 4.65070
377.915 4.76629
377.993 4.92000
378.032 4.99980
378.071 5.08137
378.110 5.16520
378.149 5.25093
378.188 5.33885
378.227 5.42902
378.261 5.50834
378.308 5.62363
378.356 5.74263
378.403 5.86550
378.450 5.99215
378.506 6.14700
378.562 6.30802
378.618 6.47556
378.673 6.64967
378.729 6.83135
378.785 7.02072
378.813 7.11843
378.841 7.21822
378.869 7.32017
378.896 7.42396
378.947 7.61716
378.997 7.81816
379.022 7.92172
379.047 8.02738
379.072 8.13523
379.097 8.24530
379.122 8.35768
379.147 8.47241
379.173 8.58958
379.198 8.70925
379.223 8.83150
379.248 8.95639
379.273 9.08402
379.298 9.21393
379.323 9.34726
379.348 9.48357
379.373 9.62296
379.398 9.76552
379.423 9.91136
379.449 10.0606
379.474 10.2133
379.499 10.3696
379.524 10.5296
379.549 10.6934
379.599 11.0332
379.649 11.3898
379.699 11.7639
379.730 12.0025
379.761 12.2488
379.792 12.5030
379.822 12.7645
379.853 13.0356
379.884 13.3157
379.914 13.6053
379.945 13.9038
379.976 14.2136
380.006 14.5344
380.037 14.8666
380.068 15.2097
380.098 15.5665
380.129 15.9354
380.160 16.3195
380.190 16.7171
380.221 17.1315
380.252 17.5623
380.282 18.0105
380.313 18.4755
380.344 18.9615
380.374 19.4682
380.405 19.9967
380.436 20.5468
380.466 21.1234
380.497 21.7264
380.528 22.3575
380.558 23.0166
380.589 23.7100
380.620 24.4379
380.650 25.2028
380.681 26.0047
380.712 26.8520
380.742 27.7453
380.773 28.6883
380.804 29.6817
380.834 30.7363
380.865 31.8537
380.896 33.0394
380.926 34.2948
380.957 35.6347
380.988 37.0620
381.018 38.5846
381.049 40.2055
381.080 41.9444
381.110 43.8004
381.141 45.7966
381.172 47.9321
381.195 49.6944
381.219 51.5584
381.243 53.5311
381.266 55.6200
381.290 57.8330
381.314 60.1782
381.338 62.6646
381.361 65.3015
381.385 68.0986
381.409 71.0661
381.432 74.2149
381.456 77.5560
381.480 81.1011
381.503 84.8623
381.527 88.8521
381.551 93.0833
381.582 98.9447
381.612 105.263
381.643 112.067
381.674 119.363
381.704 127.229
381.735 135.671
381.766 144.718
381.796 154.366
381.827 164.704
381.858 175.725
381.888 187.450
381.919 199.856
381.950 213.037
381.980 226.963
382.011 241.638
382.042 257.008
382.072 273.167
382.103 290.048
382.134 307.629
382.164 325.818
382.195 344.694
382.226 364.087
382.287 404.431
382.343 442.486
382.399 481.264
382.510 558.384
382.571 598.962
382.633 636.830
382.700 673.921
382.733 690.393
382.766 705.303
382.817 724.441
382.867 739.354
382.917 749.723
382.967 755.313
383.000 756.334
383.017 756.024
383.071 751.225
383.126 740.769
383.180 724.923
383.235 704.090
383.275 685.647
383.315 665.027
383.356 642.398
383.396 618.158
383.436 593.325
383.475 567.476
383.553 513.873
383.667 434.687
383.724 396.088
383.781 358.903
383.820 334.381
383.859 310.847
383.899 288.389
383.938 267.072
383.977 246.942
384.016 228.021
384.055 210.319
384.095 193.865
384.134 178.553
384.173 164.394
384.212 151.345
384.251 139.354
384.291 128.367
384.330 118.324
384.369 109.163
384.408 100.842
384.440 94.5771
384.472 88.7869
384.504 83.4388
384.536 78.5157
384.568 73.9569
384.600 69.7618
384.633 65.8771
384.665 62.3011
384.697 58.9874
384.729 55.9250
384.761 53.0927
384.793 50.4790
384.825 48.0496
384.857 45.8030
384.889 43.7102
384.921 41.7703
384.960 39.5747
384.999 37.5587
385.039 35.7037
385.078 33.9931
385.117 32.4122
385.156 30.9481
385.195 29.5891
385.235 28.3283
385.274 27.1501
385.313 26.0498
385.352 25.0203
385.391 24.0553
385.431 23.1493
385.470 22.2971
385.509 21.4943
385.548 20.7388
385.591 19.9594
385.634 19.2274
385.676 18.5355
385.719 17.8839
385.805 16.6830
385.890 15.6043
385.976 14.6309
386.061 13.7491
386.147 12.9472
386.232 12.2155
386.310 11.5993
386.389 11.0297
386.467 10.5021
386.546 10.0128
386.624 9.55712
386.702 9.13244
386.781 8.73594
386.859 8.36561
386.937 8.01828
387.016 7.69246
387.094 7.38638
387.173 7.09882
387.251 6.82761
387.329 6.57215
387.408 6.33065
387.486 6.10264
387.643 5.68196
387.799 5.30396
387.956 4.96259
388.113 4.65361
388.270 4.37266
388.426 4.11676
388.583 3.88271
388.740 3.66835
388.868 3.50589
388.996 3.35418
389.125 3.21207
389.253 3.07896
389.381 2.95390
389.509 2.83641
389.638 2.72573
389.766 2.62148
389.894 2.52303
390.022 2.43009
390.151 2.34212
390.279 2.25891
390.535 2.10522
390.792 1.96676
390.949 1.88873
391.105 1.81530
391.262 1.74603
391.419 1.68070
391.576 1.61894
391.732 1.56056
392.046 1.45286
392.359 1.35594
392.673 1.26841
392.986 1.18909
393.300 1.11699
393.642 1.04557
393.984 0.980776
394.326 0.921828
394.668 0.868059
395.010 0.818867
395.352 0.773776
395.694 0.732335
396.036 0.694136
396.349 0.661647
396.663 0.631362
396.976 0.603096
397.290 0.576681
397.603 0.551963
397.917 0.528798
398.230 0.507060
398.544 0.486634
398.857 0.467417
399.171 0.449315
399.484 0.432244
399.798 0.416126
400.111 0.400892
400.425 0.386479
401.052 0.359893
401.679 0.335953
402.306 0.314323
402.933 0.294715
403.559 0.276888
404.186 0.260628
404.813 0.245759
405.440 0.232127
406.067 0.219601
406.580 0.210090
407.093 0.201188
407.606 0.192857
408.119 0.185051
408.632 0.177698
409.145 0.170758
409.658 0.164213
410.171 0.158038
410.684 0.152205
411.197 0.146690
412.223 0.136525
413.249 0.127383
414.275 0.119134
414.902 0.114483
415.529 0.110099
416.156 0.105964
416.783 0.102059
417.410 0.0983676
418.037 0.0948738
419.291 0.0884265
420.545 0.0826188
421.799 0.0773701
423.053 0.0726103
424.307 0.0682813
425.789 0.0636516
427.271 0.0594833
428.753 0.0557167
430.235 0.0523025
431.717 0.0491984
433.198 0.0463900
434.680 0.0437965
436.162 0.0414199
437.416 0.0395648
438.670 0.0378318
439.924 0.0362098
441.178 0.0346978
442.432 0.0332808
443.686 0.0319480
444.940 0.0306993
446.194 0.0295261
447.448 0.0284180
448.702 0.0273751
451.210 0.0254619
453.718 0.0237510
456.226 0.0222130
458.734 0.0208291
461.241 0.0195764
463.749 0.0184400
466.257 0.0174069
468.765 0.0164628
471.273 0.0155998
473.781 0.0148082
476.289 0.0140797
479.253 0.0133005
482.217 0.0125793
485.181 0.0119236
488.145 0.0113262
491.108 0.0107769
494.072 0.0102694
497.036 0.00980009
500.000 0.00936688
504.784 0.00873628
509.567 0.00817671
514.351 0.00767699
519.134 0.00722957
523.917 0.00683242
528.701 0.00646803
533.484 0.00613795
538.268 0.00583888
545.785 0.00542434
549.543 0.00523504
553.302 0.00506116
560.819 0.00474308
568.335 0.00446493
575.852 0.00421682
583.369 0.00399753
590.886 0.00380167
598.403 0.00362519
604.553 0.00349483
610.703 0.00337518
623.004 0.00316480
635.304 0.00298444
647.604 0.00283002
659.905 0.00269782
672.205 0.00258509
684.505 0.00248998
696.806 0.00241175
706.373 0.00236307
715.940 0.00232506
725.507 0.00229846
735.073 0.00228272
740.540 0.00228170
748.057 0.00229082
755.574 0.00231355
763.091 0.00235471
770.608 0.00242204
778.125 0.00252225
785.642 0.00267665
789.400 0.00277858
793.158 0.00291118
796.917 0.00307318
800.675 0.00326898
803.750 0.00347440
806.825 0.00373013
809.901 0.00405034
812.976 0.00445703
816.051 0.00498271
819.126 0.00567574
820.663 0.00609909
822.201 0.00660596
823.738 0.00720694
825.276 0.00792545
826.643 0.00868881
828.009 0.00960113
829.376 0.0107036
830.743 0.0120521
832.109 0.0137124
832.793 0.0146940
833.476 0.0158069
834.160 0.0170720
834.843 0.0185150
835.526 0.0201707
836.210 0.0220824
836.893 0.0243065
837.576 0.0269143
838.260 0.0299991
838.943 0.0336784
839.626 0.0381155
839.968 0.0406893
840.310 0.0435489
840.651 0.0467409
840.993 0.0503174
841.335 0.0543416
841.676 0.0588895
842.061 0.0647545
842.445 0.0715772
842.830 0.0795791
843.214 0.0890499
843.406 0.0944526
843.598 0.100378
843.791 0.106899
843.983 0.114099
844.175 0.122080
844.367 0.130963
844.559 0.140893
844.751 0.152041
844.976 0.166897
845.200 0.184143
845.312 0.193846
845.424 0.204366
845.536 0.215815
845.648 0.228312
845.761 0.242012
845.873 0.257061
845.985 0.273676
846.097 0.292112
846.209 0.312688
846.321 0.335814
846.433 0.362028
846.545 0.392049
846.604 0.409635
846.663 0.428679
846.722 0.449422
846.780 0.472121
846.839 0.497124
846.898 0.524715
846.956 0.555372
847.015 0.589623
847.074 0.628167
847.133 0.671628
847.191 0.720966
847.250 0.777246
847.309 0.841730
847.367 0.915902
847.397 0.957225
847.426 1.00150
847.456 1.04929
847.485 1.10054
847.525 1.17712
847.565 1.26168
847.605 1.35555
847.645 1.45926
847.685 1.57443
847.725 1.70164
847.765 1.84281
847.805 1.99860
847.825 2.08299
847.845 2.17125
847.865 2.26400
847.885 2.36144
847.905 2.46429
847.925 2.57176
847.945 2.68456
847.965 2.80291
847.986 2.92767
848.006 3.05784
848.026 3.19426
848.046 3.33717
848.066 3.48681
848.086 3.64343
848.126 3.97863
848.155 4.24462
848.184 4.52814
848.214 4.83001
848.243 5.14990
848.272 5.49080
848.302 5.85117
848.331 6.23424
848.360 6.63813
848.390 7.06630
848.419 7.51809
848.449 7.99412
848.478 8.49320
848.507 9.01926
848.537 9.56915
848.566 10.1470
848.595 10.7491
848.641 11.7342
848.686 12.7829
848.732 13.8947
848.777 15.0684
848.822 16.3022
848.868 17.5934
848.913 18.9384
848.958 20.3297
849.017 22.1970
849.076 24.1244
849.193 28.0926
849.311 32.0833
849.428 35.9103
849.492 37.8586
849.556 39.6644
849.615 41.1714
849.674 42.5123
849.732 43.6663
849.791 44.6153
849.855 45.3995
849.905 45.8142
849.954 46.0596
850.000 46.1334
850.050 46.0413
850.100 45.7711
850.149 45.3469
850.197 44.7675
850.247 44.0001
850.297 43.0797
850.348 42.0156
850.398 40.8202
850.462 39.1278
850.526 37.2771
850.627 34.1190
850.727 30.7666
850.929 23.9507
851.011 21.2714
851.093 18.7267
851.135 17.5128
851.176 16.3434
851.217 15.2211
851.258 14.1504
851.290 13.3492
851.322 12.5816
851.354 11.8454
851.386 11.1406
851.418 10.4673
851.450 9.82537
