Se-76(n,g) ENDFB-8.0
Energy(eV) XS(b)
1.00000E-05 4276.30
1.03125E-05 4211.01
1.06250E-05 4148.62
1.09375E-05 4088.93
1.12500E-05 4031.74
1.15625E-05 3976.88
1.18750E-05 3924.20
1.21875E-05 3873.57
1.25000E-05 3824.84
1.28125E-05 3777.91
1.31250E-05 3732.66
1.34375E-05 3689.00
1.37500E-05 3646.84
1.43750E-05 3566.68
1.50000E-05 3491.59
1.56250E-05 3421.04
1.62500E-05 3354.61
1.68750E-05 3291.90
1.75000E-05 3232.58
1.81250E-05 3176.36
1.87500E-05 3122.97
1.93750E-05 3072.19
2.00000E-05 3023.80
2.09375E-05 2955.33
2.18750E-05 2891.31
2.28125E-05 2831.27
2.37500E-05 2774.83
2.46875E-05 2721.63
2.56250E-05 2671.38
2.65625E-05 2623.82
2.75000E-05 2578.71
2.84375E-05 2535.84
2.93750E-05 2495.05
3.03125E-05 2456.16
3.12500E-05 2419.04
3.21875E-05 2383.55
3.31250E-05 2349.58
3.40625E-05 2317.02
3.50000E-05 2285.78
3.59375E-05 2255.77
3.68750E-05 2226.91
3.78125E-05 2199.13
3.87500E-05 2172.36
3.96875E-05 2146.55
4.06250E-05 2121.64
4.25000E-05 2074.31
4.43750E-05 2030.01
4.62500E-05 1988.44
4.81250E-05 1949.32
5.00000E-05 1912.42
5.15625E-05 1883.22
5.31250E-05 1855.32
5.46875E-05 1828.62
5.62500E-05 1803.05
5.78125E-05 1778.51
5.93750E-05 1754.96
6.09375E-05 1732.31
6.25000E-05 1710.52
6.40625E-05 1689.53
6.56250E-05 1669.30
6.71875E-05 1649.77
6.87500E-05 1630.92
7.18750E-05 1595.07
7.50000E-05 1561.48
7.81250E-05 1529.94
8.12500E-05 1500.23
8.43750E-05 1472.18
8.75000E-05 1445.65
9.06250E-05 1420.51
9.37500E-05 1396.63
9.68750E-05 1373.92
0.000100000 1352.28
0.000103125 1331.64
0.000106250 1311.91
0.000109375 1293.03
0.000112500 1274.95
0.000115625 1257.60
0.000118750 1240.94
0.000121875 1224.93
0.000125000 1209.52
0.000128125 1194.68
0.000131250 1180.37
0.000134375 1166.56
0.000137500 1153.23
0.000143750 1127.88
0.000150000 1104.14
0.000156250 1081.83
0.000162500 1060.82
0.000168750 1040.99
0.000175000 1022.23
0.000181250 1004.45
0.000187500 987.568
0.000193750 971.509
0.000200000 956.209
0.000209375 934.556
0.000218750 914.311
0.000228125 895.326
0.000237500 877.477
0.000246875 860.655
0.000256250 844.765
0.000265625 829.723
0.000275000 815.457
0.000284375 801.903
0.000293750 789.003
0.000303125 776.706
0.000312500 764.967
0.000321875 753.744
0.000331250 743.001
0.000340625 732.705
0.000350000 722.826
0.000359375 713.335
0.000368750 704.209
0.000378125 695.424
0.000387500 686.960
0.000396875 678.798
0.000406250 670.920
0.000425000 655.953
0.000443750 641.946
0.000462500 628.799
0.000481250 616.427
0.000500000 604.759
0.000515625 595.525
0.000531250 586.702
0.000546875 578.260
0.000562500 570.172
0.000578125 562.414
0.000593750 554.965
0.000609375 547.804
0.000625000 540.913
0.000640625 534.275
0.000656250 527.877
0.000671875 521.703
0.000687500 515.740
0.000718750 504.404
0.000750000 493.783
0.000781250 483.807
0.000812500 474.412
0.000843750 465.543
0.000875000 457.154
0.000906250 449.203
0.000937500 441.653
0.000968750 434.471
0.00100000 427.629
0.00103125 421.100
0.00106250 414.861
0.00109375 408.891
0.00112500 403.172
0.00115625 397.686
0.00118750 392.419
0.00121875 387.355
0.00125000 382.482
0.00128125 377.789
0.00131250 373.264
0.00134375 368.898
0.00137500 364.682
0.00143750 356.666
0.00150000 349.156
0.00156250 342.102
0.00162500 335.458
0.00168750 329.187
0.00175000 323.255
0.00181250 317.633
0.00187500 312.294
0.00193750 307.216
0.00200000 302.377
0.00209375 295.530
0.00218750 289.127
0.00228125 283.124
0.00237500 277.479
0.00246875 272.159
0.00256250 267.134
0.00265625 262.378
0.00275000 257.866
0.00284375 253.580
0.00293750 249.500
0.00303125 245.612
0.00312500 241.899
0.00321875 238.350
0.00331250 234.953
0.00340625 231.697
0.00350000 228.572
0.00359375 225.571
0.00368750 222.685
0.00378125 219.907
0.00387500 217.230
0.00396875 214.649
0.00406250 212.158
0.00425000 207.425
0.00443750 202.995
0.00462500 198.837
0.00481250 194.925
0.00500000 191.235
0.00515625 188.315
0.00531250 185.525
0.00546875 182.855
0.00562500 180.298
0.00578125 177.844
0.00593750 175.488
0.00609375 173.224
0.00625000 171.045
0.00640625 168.946
0.00656250 166.922
0.00671875 164.970
0.00687500 163.084
0.00718750 159.499
0.00750000 156.140
0.00781250 152.985
0.00812500 150.014
0.00843750 147.209
0.00875000 144.556
0.00906250 142.042
0.00937500 139.654
0.00968750 137.383
0.0100000 135.219
0.0103125 133.154
0.0106250 131.181
0.0109375 129.293
0.0112500 127.484
0.0115625 125.750
0.0118750 124.084
0.0121875 122.482
0.0125000 120.942
0.0128125 119.457
0.0131250 118.027
0.0134375 116.646
0.0137500 115.313
0.0143750 112.778
0.0150000 110.403
0.0156250 108.172
0.0162500 106.071
0.0168750 104.087
0.0175000 102.211
0.0181250 100.433
0.0187500 98.7442
0.0193750 97.1379
0.0200000 95.6075
0.0206625 94.0617
0.0213250 92.5884
0.0219875 91.1823
0.0226500 89.8384
0.0233125 88.5521
0.0239750 87.3196
0.0246375 86.1372
0.0253000 85.0015
0.0264578 83.1202
0.0276156 81.3587
0.0287734 79.7046
0.0299313 78.1475
0.0310891 76.6783
0.0322469 75.2890
0.0334047 73.9726
0.0345625 72.7227
0.0355274 71.7282
0.0364922 70.7732
0.0374570 69.8554
0.0384219 68.9723
0.0393867 68.1217
0.0403516 67.3018
0.0413164 66.5108
0.0422813 65.7470
0.0442109 64.2950
0.0461406 62.9350
0.0480703 61.6577
0.0500000 60.4552
0.0515625 59.5313
0.0531250 58.6486
0.0546875 57.8039
0.0562500 56.9947
0.0578125 56.2187
0.0593750 55.4735
0.0609375 54.7572
0.0625000 54.0680
0.0640625 53.4042
0.0656250 52.7643
0.0671875 52.1469
0.0687500 51.5507
0.0718750 50.4170
0.0750000 49.3547
0.0781250 48.3566
0.0812500 47.4164
0.0843750 46.5289
0.0875000 45.6893
0.0906250 44.8935
0.0937500 44.1378
0.0968750 43.4189
0.100000 42.7341
0.103125 42.0806
0.106250 41.4561
0.109375 40.8586
0.112500 40.2862
0.115625 39.7372
0.118750 39.2100
0.121875 38.7032
0.125000 38.2157
0.128125 37.7461
0.131250 37.2935
0.134375 36.8569
0.137500 36.4352
0.143750 35.6334
0.150000 34.8819
0.156250 34.1757
0.162500 33.5105
0.168750 32.8825
0.175000 32.2885
0.181250 31.7255
0.187500 31.1910
0.193750 30.6827
0.200000 30.1986
0.209375 29.5133
0.218750 28.8722
0.228125 28.2708
0.237500 27.7052
0.246875 27.1722
0.256250 26.6687
0.265625 26.1921
0.275000 25.7400
0.284375 25.3105
0.293750 24.9016
0.303125 24.5119
0.312500 24.1399
0.321875 23.7841
0.331250 23.4436
0.340625 23.1173
0.350000 22.8041
0.359375 22.5032
0.368750 22.2139
0.378125 21.9355
0.387500 21.6673
0.396875 21.4088
0.406250 21.1594
0.425000 20.6854
0.443750 20.2412
0.462500 19.8241
0.500000 19.0625
0.531250 18.4905
0.562500 17.9655
0.593750 17.4823
0.625000 17.0359
0.687500 16.2359
0.750000 15.5379
0.812500 14.9220
0.875000 14.3746
0.937500 13.8826
1.00000 13.4358
1.06250 13.0289
1.12500 12.6563
1.18750 12.3134
1.25000 11.9965
1.37500 11.4285
1.50000 10.9327
1.62500 10.4949
1.75000 10.1057
1.87500 9.75568
2.00000 9.43749
2.18750 9.01222
2.37500 8.63835
2.56250 8.30595
2.75000 8.00844
2.93750 7.73957
3.12500 7.49441
3.31250 7.27013
3.50000 7.06392
3.68750 6.87345
3.87500 6.69679
4.25000 6.37873
4.62500 6.09961
5.00000 5.85227
5.31250 5.66617
5.62500 5.49526
5.93750 5.33777
6.25000 5.19201
6.87500 4.93027
7.50000 4.70125
8.12500 4.49857
8.75000 4.31767
9.37500 4.15469
10.0000 4.00660
10.6250 3.87140
11.2500 3.74728
11.8750 3.63279
12.5000 3.52672
13.7500 3.33598
15.0000 3.16879
16.2500 3.02059
17.5000 2.88808
18.7500 2.76854
20.0000 2.65981
21.8750 2.51386
23.7500 2.38491
25.6250 2.26981
27.5000 2.16630
29.3750 2.07246
31.2500 1.98681
33.1250 1.90826
35.0000 1.83588
36.8750 1.76891
38.7500 1.70669
40.6250 1.64869
42.5000 1.59447
46.2500 1.49584
50.0000 1.40831
53.1250 1.34246
56.2500 1.28208
59.3750 1.22651
62.5000 1.17516
65.6250 1.12755
68.7500 1.08326
71.8750 1.04194
75.0000 1.00330
78.1250 0.967070
81.2500 0.933029
84.3750 0.900980
87.5000 0.870775
93.7500 0.815207
100.000 0.765273
106.250 0.720183
112.500 0.679274
118.750 0.642002
125.000 0.607916
131.250 0.576639
137.500 0.547852
143.750 0.521286
150.000 0.496708
156.250 0.473918
162.500 0.452742
168.750 0.433031
175.000 0.414652
181.250 0.397489
187.500 0.381441
193.750 0.366419
200.000 0.352350
211.802 0.328152
223.605 0.306698
235.407 0.287670
247.210 0.270857
253.111 0.263210
259.012 0.256133
264.913 0.249454
270.814 0.243297
276.716 0.237751
282.617 0.232779
288.518 0.228437
294.419 0.224812
298.585 0.222797
302.750 0.221245
306.916 0.220189
311.081 0.219728
314.726 0.220169
318.371 0.221082
322.016 0.223012
325.661 0.226142
327.483 0.228196
329.306 0.230749
331.128 0.233706
332.951 0.237218
334.773 0.241493
336.595 0.246286
338.418 0.252123
340.240 0.259038
341.802 0.265990
343.364 0.274068
344.927 0.283484
346.489 0.294503
348.051 0.307465
348.832 0.314803
349.613 0.322776
350.394 0.331406
351.175 0.340929
351.956 0.351388
352.737 0.362881
353.692 0.378530
354.646 0.396212
355.601 0.416283
356.555 0.439177
357.033 0.451846
357.510 0.465431
357.987 0.480022
358.465 0.495718
358.942 0.512632
359.419 0.530889
359.896 0.550635
360.374 0.572031
360.938 0.599692
361.502 0.630203
362.066 0.663981
362.630 0.701657
363.194 0.743843
363.758 0.791202
364.322 0.844601
364.604 0.873884
364.886 0.905093
365.364 0.962812
365.841 1.02751
366.080 1.06285
366.318 1.10038
366.557 1.14032
366.796 1.18285
367.034 1.22822
367.273 1.27667
367.512 1.32852
367.750 1.38405
367.989 1.44365
368.228 1.50768
368.466 1.57661
368.705 1.65091
368.965 1.73884
369.226 1.83475
369.486 1.93977
369.746 2.05505
370.007 2.18204
370.267 2.32225
370.527 2.47764
370.788 2.65047
371.015 2.81823
371.243 3.00352
371.471 3.20897
371.699 3.43761
371.813 3.56174
371.927 3.69308
372.041 3.83221
372.154 3.97976
372.268 4.13643
372.382 4.30300
372.496 4.48033
372.610 4.66941
372.691 4.81231
372.773 4.96200
372.854 5.11931
372.935 5.28436
373.017 5.45810
373.098 5.64072
373.180 5.83332
373.220 5.93349
373.261 6.03612
373.321 6.19215
373.380 6.35456
373.440 6.52371
373.500 6.69968
373.559 6.88348
373.619 7.07493
373.679 7.27515
373.738 7.48396
373.792 7.68245
373.847 7.88887
373.887 8.04961
373.928 8.21551
373.969 8.38678
374.009 8.56368
374.050 8.74646
374.091 8.93539
374.132 9.13074
374.172 9.33232
374.205 9.49925
374.237 9.67034
374.270 9.84682
374.302 10.0278
374.335 10.2146
374.367 10.4063
374.400 10.6037
374.432 10.8069
374.462 10.9994
374.492 11.1965
374.522 11.3992
374.552 11.6077
374.582 11.8230
374.611 12.0438
374.641 12.2711
374.671 12.5052
374.701 12.7472
374.731 12.9958
374.761 13.2529
374.790 13.5171
374.820 13.7907
374.850 14.0720
374.880 14.3625
374.910 14.6625
374.953 15.1174
374.997 15.5949
375.040 16.0967
375.083 16.6244
375.127 17.1800
375.170 17.7656
375.214 18.3835
375.257 19.0348
375.287 19.5063
375.317 19.9950
375.346 20.5054
375.376 21.0352
375.406 21.5892
375.436 22.1651
375.466 22.7661
375.496 23.3940
375.525 24.0527
375.555 24.7397
375.585 25.4592
375.615 26.2134
375.645 27.0076
375.675 27.8390
375.704 28.7133
375.734 29.6337
375.764 30.6069
375.794 31.6303
375.824 32.7151
375.854 33.8585
375.883 35.0735
375.913 36.3573
375.943 37.7201
375.973 39.1685
376.003 40.7151
376.033 42.3575
376.062 44.1096
376.092 45.9808
376.122 47.9885
376.152 50.1304
376.182 52.4255
376.211 54.8869
376.230 56.5496
376.249 58.2898
376.268 60.1115
376.287 62.0191
376.306 64.0171
376.325 66.1103
376.344 68.3036
376.363 70.5898
376.382 72.9985
376.401 75.5233
376.420 78.1700
376.439 80.9296
376.458 83.8374
376.477 86.8855
376.496 90.0805
376.515 93.4108
376.545 99.0060
376.575 105.005
376.605 111.474
376.635 118.401
376.664 125.858
376.694 133.826
376.724 142.356
376.754 151.476
376.784 161.245
376.814 171.624
376.843 182.704
376.873 194.433
376.903 206.907
376.933 220.055
376.963 233.930
376.993 248.536
377.022 263.926
377.052 279.992
377.082 296.772
377.112 314.247
377.142 332.455
377.172 351.240
377.201 370.620
377.231 390.548
377.291 431.875
377.350 474.524
377.470 561.210
377.540 611.100
377.611 657.940
377.670 694.011
377.730 725.829
377.781 748.882
377.831 767.699
377.882 781.927
377.933 791.258
377.966 794.655
378.000 795.740
378.017 795.414
378.072 790.363
378.127 779.357
378.182 762.643
378.236 740.707
378.278 720.731
378.320 698.288
378.362 673.689
378.404 647.326
378.445 620.094
378.486 591.761
378.567 533.127
378.671 457.611
378.723 420.774
378.775 385.119
378.816 358.135
378.857 332.240
378.898 307.540
378.939 284.175
378.980 262.083
379.021 241.405
379.062 222.049
379.102 204.100
379.143 187.444
379.184 172.087
379.225 157.978
379.266 145.087
379.307 133.287
379.348 122.564
379.368 117.550
379.388 112.795
379.409 108.266
379.429 103.954
379.461 97.6809
379.492 91.8742
379.524 86.5017
379.556 81.5479
379.587 76.9519
379.619 72.7020
379.650 68.7718
379.682 65.1472
379.713 61.7818
379.745 58.6655
379.777 55.7779
379.808 53.1081
379.840 50.6218
379.871 48.3115
379.903 46.1624
379.934 44.1670
379.975 41.7747
380.016 39.5845
380.057 37.5747
380.098 35.7306
380.139 34.0261
380.180 32.4548
380.221 30.9958
380.261 29.6447
380.302 28.3847
380.343 27.2101
380.384 26.1129
380.425 25.0885
380.466 24.1257
380.507 23.2235
380.547 22.3725
380.588 21.5727
380.629 20.8160
380.670 20.1010
380.752 18.7850
380.833 17.6010
380.915 16.5310
380.997 15.5590
381.079 14.6750
381.160 13.8674
381.242 13.1273
381.324 12.4463
381.406 11.8195
381.487 11.2399
381.569 10.7040
381.651 10.2061
381.733 9.74383
381.814 9.31322
381.896 8.91139
381.978 8.53535
382.059 8.18374
382.141 7.85404
382.223 7.54446
382.305 7.25302
382.386 6.97897
382.468 6.72063
382.550 6.47679
382.713 6.02819
382.877 5.62598
383.040 5.26391
383.204 4.93697
383.367 4.64036
383.531 4.37074
383.694 4.12464
383.857 3.89964
383.984 3.73860
384.110 3.58775
384.236 3.44623
384.363 3.31329
384.489 3.18823
384.615 3.07044
384.742 2.95934
384.868 2.85443
385.120 2.66139
385.373 2.48815
385.626 2.33210
385.878 2.19106
386.042 2.10687
386.205 2.02775
386.369 1.95328
386.532 1.88316
386.696 1.81697
386.859 1.75450
387.186 1.63950
387.513 1.53626
387.840 1.44328
388.167 1.35921
388.494 1.28295
388.717 1.23494
388.939 1.18985
389.162 1.14747
389.385 1.10759
389.831 1.03457
390.277 0.969475
390.723 0.911100
391.168 0.858501
391.614 0.810965
392.060 0.767895
392.387 0.738816
392.714 0.711667
393.041 0.686273
393.368 0.662484
393.694 0.640167
394.021 0.619203
394.675 0.580912
395.329 0.546863
395.983 0.516455
396.637 0.489180
397.290 0.464618
397.825 0.446291
398.360 0.429389
398.895 0.413791
399.430 0.399378
399.965 0.385957
400.500 0.373431
401.035 0.361744
401.570 0.350834
402.640 0.331073
403.710 0.313685
404.780 0.298296
405.850 0.284605
406.741 0.274312
407.633 0.264905
408.524 0.256283
409.416 0.248356
410.308 0.241051
411.199 0.234299
412.091 0.228059
412.982 0.222335
414.765 0.211880
416.549 0.202744
418.332 0.194710
420.115 0.187596
422.017 0.180855
423.919 0.174851
425.821 0.169469
427.723 0.164617
429.625 0.160219
431.527 0.156229
435.331 0.149203
439.135 0.143199
442.939 0.138007
446.743 0.133459
450.547 0.129427
456.729 0.123758
462.911 0.118912
469.092 0.114657
475.274 0.110936
481.455 0.107576
487.637 0.104516
493.819 0.101710
500.000 0.0991335
507.737 0.0962391
515.474 0.0935426
523.211 0.0910290
530.948 0.0887684
546.422 0.0846798
561.897 0.0811987
577.371 0.0781853
592.845 0.0756681
600.582 0.0745614
608.319 0.0736040
623.793 0.0719768
632.234 0.0713285
640.674 0.0708292
649.114 0.0704811
657.555 0.0703007
667.402 0.0703901
677.249 0.0708077
687.096 0.0715999
692.020 0.0720910
696.943 0.0727578
701.867 0.0735665
706.791 0.0745304
711.714 0.0756632
716.638 0.0769837
721.561 0.0785151
726.485 0.0802852
731.409 0.0823294
736.332 0.0846980
740.904 0.0872514
745.476 0.0901875
750.048 0.0934663
754.620 0.0973107
759.192 0.101736
763.764 0.106870
766.050 0.109746
768.335 0.112847
770.621 0.116194
772.907 0.119821
776.248 0.125696
779.589 0.132341
781.260 0.135971
782.930 0.139877
784.601 0.144015
786.271 0.148458
787.942 0.153219
789.612 0.158291
791.283 0.163787
792.953 0.169642
794.624 0.175977
796.294 0.182721
797.965 0.190086
799.635 0.198065
801.570 0.208154
803.504 0.219270
805.438 0.231558
807.372 0.245185
809.307 0.260350
811.241 0.277290
813.175 0.296293
814.142 0.306672
815.109 0.317699
815.945 0.327772
816.780 0.338379
817.615 0.349608
818.451 0.361513
819.286 0.374125
819.703 0.380709
820.121 0.387489
820.539 0.394477
820.956 0.401679
821.374 0.409108
821.792 0.416770
822.275 0.425948
822.517 0.430663
822.759 0.435466
823.001 0.440359
823.242 0.445343
823.484 0.450422
823.726 0.455594
823.968 0.460868
824.209 0.466242
824.451 0.471721
824.693 0.477304
824.935 0.482998
825.177 0.488805
825.418 0.494726
825.660 0.500762
825.858 0.505794
826.056 0.510907
826.254 0.516105
826.451 0.521389
826.649 0.526766
826.847 0.532230
826.946 0.534997
827.045 0.537788
827.144 0.540602
827.243 0.543441
827.375 0.547264
827.479 0.550325
827.583 0.553410
827.688 0.556524
827.792 0.559666
827.897 0.562837
828.001 0.566038
828.210 0.572527
828.441 0.579842
828.671 0.587308
828.902 0.594931
829.133 0.602714
829.364 0.610663
829.595 0.618781
829.825 0.627074
830.056 0.635542
830.298 0.644617
830.540 0.653901
830.782 0.663401
831.023 0.673119
831.265 0.683071
831.507 0.693260
831.749 0.703693
831.990 0.714374
832.232 0.725319
832.474 0.736534
832.716 0.748026
832.958 0.759805
833.199 0.771881
833.441 0.784264
833.683 0.796964
833.925 0.809992
834.167 0.823359
834.408 0.837078
834.650 0.851161
834.892 0.865615
835.134 0.880465
835.375 0.895720
835.617 0.911395
835.859 0.927499
836.035 0.939503
836.211 0.951745
836.387 0.964248
836.562 0.977003
836.738 0.990032
836.914 1.00333
837.266 1.03077
837.617 1.05941
837.969 1.08930
838.321 1.12052
838.672 1.15315
838.914 1.17645
839.156 1.20049
839.398 1.22531
839.640 1.25092
839.881 1.27738
840.123 1.30471
840.365 1.33296
840.607 1.36215
840.848 1.39236
841.090 1.42361
841.332 1.45596
841.574 1.48946
841.816 1.52416
842.057 1.56012
842.299 1.59740
842.541 1.63605
842.783 1.67618
843.025 1.71784
843.266 1.76110
843.508 1.80607
843.750 1.85281
843.992 1.90144
844.234 1.95205
844.475 2.00473
844.717 2.05963
844.959 2.11687
845.201 2.17657
845.442 2.23886
845.684 2.30393
845.926 2.37193
846.168 2.44304
846.409 2.51741
846.607 2.58091
846.805 2.64683
847.003 2.71536
847.201 2.78661
847.399 2.86077
847.596 2.93793
847.794 3.01828
847.992 3.10200
848.190 3.18932
848.388 3.28037
848.586 3.37540
848.783 3.47465
848.981 3.57839
849.179 3.68690
849.377 3.80047
849.575 3.91943
849.816 4.07268
850.058 4.23518
850.300 4.40768
850.542 4.59102
850.784 4.78611
851.025 4.99395
851.267 5.21570
851.509 5.45248
851.751 5.70592
851.992 5.97747
852.234 6.26889
852.476 6.58215
852.718 6.91946
852.960 7.28334
853.201 7.67662
853.443 8.10232
853.685 8.56445
853.927 9.06704
854.169 9.61487
854.410 10.2134
854.531 10.5337
854.652 10.8691
854.773 11.2206
854.894 11.5892
855.015 11.9760
855.136 12.3822
855.257 12.8092
855.377 13.2578
855.498 13.7304
855.619 14.2283
855.740 14.7531
855.861 15.3069
855.982 15.8917
856.103 16.5097
856.224 17.1635
856.345 17.8551
856.465 18.5885
856.586 19.3666
856.707 20.1926
856.828 21.0704
856.949 22.0042
857.070 22.9984
857.191 24.0581
857.312 25.1876
857.444 26.5085
857.575 27.9290
857.707 29.4582
857.839 31.1060
857.971 32.8833
858.103 34.8017
858.235 36.8737
858.367 39.1108
858.488 41.3214
858.609 43.6953
858.729 46.2438
858.850 48.9784
858.971 51.9103
859.092 55.0501
859.213 58.4071
859.334 61.9861
859.462 66.0360
859.590 70.3477
859.718 74.9190
859.847 79.7412
859.975 84.7985
860.103 90.0664
860.231 95.5108
860.359 101.087
860.711 116.574
860.887 124.061
861.063 131.073
861.238 137.363
861.414 142.687
861.502 144.915
861.590 146.820
861.678 148.381
861.766 149.579
861.883 150.591
862.000 150.913
862.117 150.540
862.213 149.727
862.308 148.472
862.403 146.791
862.498 144.707
862.593 142.244
862.689 139.439
862.784 136.325
862.879 132.940
863.070 125.506
863.260 117.461
863.641 100.697
863.793 94.0857
863.945 87.6822
864.098 81.5501
864.250 75.7378
864.402 70.2725
864.555 65.1769
864.707 60.4504
864.859 56.0865
865.010 52.1200
865.160 48.4767
865.311 45.1363
865.461 42.0792
865.611 39.2792
865.762 36.7184
865.912 34.3726
866.062 32.2253
866.226 30.0843
866.390 28.1357
866.554 26.3585
866.718 24.7352
866.882 23.2490
867.046 21.8876
867.210 20.6375
867.374 19.4877
867.525 18.5127
