Se-78(n,tot) ENDFB-8.0
Energy(eV) XS(b)
1.00000E-05 77.0146
1.03125E-05 75.8554
1.06250E-05 74.7480
1.09375E-05 73.6886
1.12500E-05 72.6740
1.15625E-05 71.7009
1.18750E-05 70.7667
1.21875E-05 69.8689
1.25000E-05 69.0052
1.28125E-05 68.1734
1.31250E-05 67.3717
1.34375E-05 66.5983
1.37500E-05 65.8516
1.43750E-05 64.4324
1.50000E-05 63.1034
1.56250E-05 61.8555
1.62500E-05 60.6808
1.68750E-05 59.5725
1.75000E-05 58.5245
1.81250E-05 57.5317
1.87500E-05 56.5894
1.93750E-05 55.6934
2.00000E-05 54.8401
2.09375E-05 53.6332
2.18750E-05 52.5055
2.28125E-05 51.4488
2.37500E-05 50.4559
2.46875E-05 49.5207
2.56250E-05 48.6379
2.65625E-05 47.8028
2.75000E-05 47.0113
2.84375E-05 46.2597
2.93750E-05 45.5449
3.03125E-05 44.8639
3.12500E-05 44.2143
3.21875E-05 43.5936
3.31250E-05 42.9999
3.40625E-05 42.4312
3.50000E-05 41.8859
3.59375E-05 41.3624
3.68750E-05 40.8593
3.78125E-05 40.3753
3.87500E-05 39.9094
3.96875E-05 39.4603
4.06250E-05 39.0271
4.25000E-05 38.2049
4.43750E-05 37.4365
4.62500E-05 36.7161
4.81250E-05 36.0391
5.00000E-05 35.4014
5.15625E-05 34.8974
5.31250E-05 34.4162
5.46875E-05 33.9564
5.62500E-05 33.5162
5.78125E-05 33.0945
5.93750E-05 32.6900
6.09375E-05 32.3015
6.25000E-05 31.9281
6.40625E-05 31.5688
6.56250E-05 31.2228
6.71875E-05 30.8893
6.87500E-05 30.5675
7.18750E-05 29.9567
7.50000E-05 29.3856
7.81250E-05 28.8503
8.12500E-05 28.3472
8.43750E-05 27.8733
8.75000E-05 27.4259
9.06250E-05 27.0027
9.37500E-05 26.6016
9.68750E-05 26.2209
0.000100000 25.8590
0.000103125 25.5142
0.000106250 25.1855
0.000109375 24.8716
0.000112500 24.5714
0.000115625 24.2841
0.000118750 24.0087
0.000121875 23.7445
0.000125000 23.4908
0.000128125 23.2469
0.000131250 23.0122
0.000134375 22.7862
0.000137500 22.5684
0.000143750 22.1554
0.000150000 21.7699
0.000156250 21.4092
0.000162500 21.0708
0.000168750 20.7526
0.000175000 20.4527
0.000181250 20.1695
0.000187500 19.9015
0.000193750 19.6475
0.000200000 19.4065
0.000209375 19.0668
0.000218750 18.7509
0.000228125 18.4563
0.000237500 18.1807
0.000246875 17.9223
0.000256250 17.6794
0.000265625 17.4507
0.000275000 17.2349
0.000284375 17.0309
0.000293750 16.8376
0.000303125 16.6543
0.000312500 16.4802
0.000321875 16.3145
0.000331250 16.1566
0.000340625 16.0060
0.000350000 15.8621
0.000359375 15.7246
0.000368750 15.5929
0.000378125 15.4667
0.000387500 15.3457
0.000396875 15.2295
0.000406250 15.1178
0.000425000 14.9070
0.000443750 14.7114
0.000462500 14.5293
0.000481250 14.3593
0.000500000 14.2003
0.000515625 14.0753
0.000531250 13.9567
0.000546875 13.8438
0.000562500 13.7364
0.000578125 13.6340
0.000593750 13.5363
0.000609375 13.4429
0.000625000 13.3535
0.000640625 13.2679
0.000656250 13.1859
0.000671875 13.1071
0.000687500 13.0315
0.000718750 12.8888
0.000750000 12.7566
0.000781250 12.6336
0.000812500 12.5189
0.000843750 12.4116
0.000875000 12.3111
0.000906250 12.2166
0.000937500 12.1277
0.000968750 12.0438
0.00100000 11.9646
0.00103125 11.8895
0.00106250 11.8184
0.00109375 11.7508
0.00112500 11.6865
0.00115625 11.6253
0.00118750 11.5670
0.00121875 11.5112
0.00125000 11.4579
0.00128125 11.4069
0.00131250 11.3581
0.00134375 11.3112
0.00137500 11.2662
0.00143750 11.1814
0.00150000 11.1028
0.00156250 11.0297
0.00162500 10.9616
0.00168750 10.8979
0.00175000 10.8381
0.00181250 10.7820
0.00187500 10.7292
0.00193750 10.6794
0.00200000 10.6322
0.00209375 10.5661
0.00218750 10.5050
0.00228125 10.4482
0.00237500 10.3954
0.00246875 10.3460
0.00256250 10.2997
0.00265625 10.2563
0.00275000 10.2155
0.00284375 10.1769
0.00293750 10.1405
0.00303125 10.1061
0.00312500 10.0734
0.00321875 10.0423
0.00331250 10.0128
0.00340625 9.98464
0.00350000 9.95778
0.00359375 9.93212
0.00368750 9.90758
0.00378125 9.88408
0.00387500 9.86155
0.00396875 9.83993
0.00406250 9.81915
0.00425000 9.77995
0.00443750 9.74357
0.00462500 9.70970
0.00481250 9.67807
0.00500000 9.64845
0.00515625 9.62517
0.00531250 9.60304
0.00546875 9.58197
0.00562500 9.56190
0.00578125 9.54274
0.00593750 9.52442
0.00609375 9.50690
0.00625000 9.49011
0.00640625 9.47401
0.00656250 9.45855
0.00671875 9.44369
0.00687500 9.42940
0.00718750 9.40238
0.00750000 9.37724
0.00781250 9.35379
0.00812500 9.33184
0.00843750 9.31125
0.00875000 9.29188
0.00906250 9.27362
0.00937500 9.25638
0.00968750 9.24005
0.0100000 9.22457
0.0103125 9.20987
0.0106250 9.19588
0.0109375 9.18255
0.0112500 9.16984
0.0115625 9.15769
0.0118750 9.14606
0.0121875 9.13493
0.0125000 9.12425
0.0128125 9.11400
0.0131250 9.10415
0.0134375 9.09468
0.0137500 9.08556
0.0143750 9.06829
0.0150000 9.05221
0.0156250 9.03717
0.0162500 9.02309
0.0168750 9.00985
0.0175000 8.99739
0.0181250 8.98562
0.0187500 8.97450
0.0193750 8.96395
0.0200000 8.95395
0.0206625 8.94387
0.0213250 8.93431
0.0219875 8.92521
0.0226500 8.91654
0.0233125 8.90827
0.0239750 8.90037
0.0246375 8.89282
0.0253000 8.88558
0.0264578 8.87363
0.0276156 8.86249
0.0287734 8.85208
0.0299313 8.84231
0.0310891 8.83313
0.0322469 8.82448
0.0334047 8.81631
0.0345625 8.80858
0.0355274 8.80244
0.0364922 8.79657
0.0374570 8.79093
0.0384219 8.78552
0.0393867 8.78033
0.0403516 8.77532
0.0413164 8.77051
0.0422813 8.76587
0.0442109 8.75707
0.0461406 8.74886
0.0480703 8.74118
0.0500000 8.73397
0.0515625 8.72844
0.0531250 8.72317
0.0546875 8.71814
0.0562500 8.71334
0.0578125 8.70873
0.0593750 8.70432
0.0609375 8.70009
0.0625000 8.69603
0.0640625 8.69212
0.0656250 8.68836
0.0671875 8.68474
0.0687500 8.68125
0.0718750 8.67462
0.0750000 8.66843
0.0781250 8.66263
0.0812500 8.65718
0.0843750 8.65205
0.0875000 8.64720
0.0906250 8.64262
0.0937500 8.63828
0.0968750 8.63416
0.100000 8.63023
0.103125 8.62650
0.106250 8.62294
0.109375 8.61953
0.112500 8.61628
0.115625 8.61316
0.118750 8.61017
0.121875 8.60730
0.125000 8.60454
0.128125 8.60189
0.131250 8.59934
0.134375 8.59688
0.137500 8.59450
0.143750 8.58999
0.150000 8.58578
0.156250 8.58183
0.162500 8.57811
0.168750 8.57460
0.175000 8.57129
0.181250 8.56816
0.187500 8.56519
0.193750 8.56237
0.200000 8.55969
0.209375 8.55590
0.218750 8.55235
0.228125 8.54904
0.237500 8.54592
0.246875 8.54299
0.256250 8.54022
0.265625 8.53760
0.275000 8.53512
0.284375 8.53277
0.293750 8.53053
0.303125 8.52840
0.312500 8.52637
0.321875 8.52442
0.331250 8.52257
0.340625 8.52079
0.350000 8.51908
0.359375 8.51744
0.368750 8.51586
0.378125 8.51435
0.387500 8.51289
0.396875 8.51148
0.406250 8.51012
0.425000 8.50755
0.443750 8.50513
0.462500 8.50287
0.500000 8.49874
0.531250 8.49563
0.562500 8.49278
0.593750 8.49016
0.625000 8.48774
0.687500 8.48340
0.750000 8.47960
0.812500 8.47625
0.875000 8.47326
0.937500 8.47057
1.00000 8.46812
1.06250 8.46588
1.12500 8.46382
1.18750 8.46192
1.25000 8.46016
1.37500 8.45699
1.50000 8.45420
1.62500 8.45171
1.75000 8.44948
1.87500 8.44745
2.00000 8.44560
2.18750 8.44308
2.37500 8.44083
2.56250 8.43880
2.75000 8.43695
2.93750 8.43524
3.12500 8.43366
3.31250 8.43219
3.50000 8.43081
3.87500 8.42829
4.25000 8.42601
4.62500 8.42394
5.00000 8.42203
5.31250 8.42054
5.62500 8.41913
5.93750 8.41779
6.25000 8.41650
6.87500 8.41409
7.50000 8.41184
8.12500 8.40972
8.75000 8.40771
9.37500 8.40579
10.0000 8.40394
10.6250 8.40216
11.2500 8.40043
11.8750 8.39875
12.5000 8.39712
13.7500 8.39394
15.0000 8.39088
16.2500 8.38791
17.5000 8.38502
18.7500 8.38218
20.0000 8.37940
21.8750 8.37529
23.7500 8.37127
25.6250 8.36730
27.5000 8.36337
29.3750 8.35949
31.2500 8.35564
33.1250 8.35181
35.0000 8.34800
38.7500 8.34042
42.5000 8.33289
46.2500 8.32537
50.0000 8.31787
53.1250 8.31161
56.2500 8.30535
59.3750 8.29908
62.5000 8.29279
68.7500 8.28015
75.0000 8.26741
81.2500 8.25455
87.5000 8.24154
93.7500 8.22838
100.000 8.21502
106.250 8.20147
112.500 8.18769
118.750 8.17367
125.000 8.15938
134.375 8.13736
143.750 8.11465
150.000 8.09902
156.250 8.08297
162.500 8.06646
168.750 8.04946
175.000 8.03191
181.250 8.01376
187.500 7.99494
193.750 7.97540
200.000 7.95505
207.495 7.92939
211.243 7.91613
214.990 7.90233
222.485 7.87369
229.980 7.84298
233.727 7.82693
237.475 7.81009
241.222 7.79279
244.970 7.77479
248.717 7.75587
252.464 7.73634
256.212 7.71588
259.959 7.69455
263.885 7.67092
267.811 7.64608
271.737 7.61985
275.663 7.59201
279.589 7.56256
283.515 7.53112
285.478 7.51467
287.441 7.49755
291.367 7.46169
294.579 7.43027
297.791 7.39683
299.397 7.37933
301.003 7.36116
302.609 7.34253
304.215 7.32302
305.821 7.30307
307.427 7.28214
309.033 7.26061
310.639 7.23817
312.245 7.21503
313.851 7.19079
315.457 7.16555
317.063 7.13924
319.026 7.10550
320.989 7.06992
322.952 7.03230
324.915 6.99246
326.878 6.95020
328.841 6.90525
330.804 6.85735
332.767 6.80622
334.552 6.75658
335.444 6.73057
336.336 6.70366
337.228 6.67588
338.121 6.64711
339.013 6.61733
339.905 6.58653
340.797 6.55455
341.690 6.52142
342.582 6.48704
343.474 6.45129
344.366 6.41420
345.259 6.37561
346.151 6.33561
347.043 6.29377
348.025 6.24564
349.006 6.19519
349.988 6.14226
350.969 6.08665
351.950 6.02815
352.932 5.96655
353.913 5.90159
354.895 5.83302
355.876 5.76052
356.858 5.68377
357.349 5.64369
357.839 5.60241
358.330 5.55988
358.821 5.51605
359.312 5.47084
359.802 5.42423
360.293 5.37614
360.784 5.32651
361.275 5.27526
361.765 5.22235
362.256 5.16769
362.747 5.11124
363.282 5.04755
363.817 4.98156
364.353 4.91307
364.888 4.84200
365.423 4.76830
365.959 4.69189
366.494 4.61269
367.029 4.53066
367.520 4.45293
368.011 4.37281
368.502 4.29030
368.992 4.20551
369.483 4.11855
369.729 4.07434
369.974 4.02970
370.219 3.98465
370.465 3.93927
370.710 3.89361
370.955 3.84777
371.357 3.77257
371.758 3.69766
372.160 3.62372
372.361 3.58737
372.561 3.55163
372.762 3.51663
372.963 3.48257
373.164 3.44961
373.364 3.41804
373.565 3.38809
373.766 3.36011
373.967 3.33444
374.167 3.31153
374.413 3.28793
374.658 3.27017
374.904 3.25947
375.149 3.25730
375.394 3.26544
375.640 3.28606
375.885 3.32176
376.130 3.37571
376.292 3.42315
376.454 3.48151
376.616 3.55237
376.777 3.63751
376.939 3.73910
377.020 3.79678
377.101 3.85944
377.182 3.92757
377.263 4.00143
377.343 4.08163
377.424 4.16843
377.486 4.23918
377.547 4.31421
377.608 4.39402
377.670 4.47862
377.731 4.56858
377.792 4.66392
377.854 4.76512
377.915 4.87252
377.993 5.01897
378.032 5.09657
378.071 5.17698
378.110 5.26071
378.149 5.34748
378.188 5.43762
378.227 5.53126
378.261 5.61461
378.308 5.73733
378.356 5.86592
378.403 6.00068
378.450 6.14163
378.506 6.31667
378.562 6.50176
378.618 6.69754
378.673 6.90431
378.729 7.12355
378.785 7.35570
378.813 7.47687
378.841 7.60160
378.869 7.73000
378.896 7.86171
378.947 8.10950
378.997 8.37078
379.022 8.50673
379.047 8.64639
379.072 8.78985
379.097 8.93725
379.122 9.08870
379.147 9.24434
379.173 9.40431
379.198 9.56874
379.223 9.73778
379.248 9.91158
379.273 10.0903
379.298 10.2734
379.323 10.4624
379.348 10.6569
379.373 10.8570
379.398 11.0630
379.423 11.2749
379.449 11.4931
379.474 11.7177
379.499 11.9490
379.524 12.1873
379.549 12.4327
379.599 12.9462
379.649 13.4916
379.699 14.0704
379.730 14.4431
379.761 14.8305
379.792 15.2331
379.822 15.6504
379.853 16.0858
379.884 16.5389
379.914 17.0106
379.945 17.5002
379.976 18.0120
380.006 18.5454
380.037 19.1017
380.068 19.6801
380.098 20.2859
380.129 20.9164
380.160 21.5773
380.190 22.2660
380.221 22.9888
380.252 23.7454
380.282 24.5379
380.313 25.3657
380.344 26.2367
380.374 27.1509
380.405 28.1112
380.436 29.1173
380.466 30.1792
380.497 31.2973
380.528 32.4758
380.558 33.7148
380.589 35.0274
380.620 36.4148
380.650 37.8830
380.681 39.4330
380.712 41.0822
380.742 42.8333
380.773 44.6949
380.804 46.6699
380.834 48.7815
380.865 51.0351
380.896 53.4433
380.926 56.0115
380.957 58.7721
380.988 61.7339
381.018 64.9159
381.049 68.3273
381.080 72.0133
381.110 75.9747
381.141 80.2651
381.172 84.8863
381.195 88.7228
381.219 92.8019
381.243 97.1409
381.266 101.759
381.290 106.675
381.314 111.911
381.338 117.488
381.361 123.431
381.385 129.765
381.409 136.515
381.432 143.710
381.456 151.377
381.480 159.548
381.503 168.253
381.527 177.525
381.551 187.397
381.582 201.135
381.612 216.015
381.643 232.118
381.674 249.465
381.704 268.251
381.735 288.501
381.766 310.296
381.796 333.635
381.827 358.742
381.858 385.615
381.888 414.316
381.919 444.797
381.950 477.303
381.980 511.772
382.011 548.226
382.042 586.543
382.072 626.967
382.103 669.348
382.134 713.642
382.164 759.629
382.195 807.524
382.226 856.905
382.287 960.208
382.343 1058.36
382.399 1159.12
382.510 1362.01
382.571 1470.41
382.633 1572.94
382.700 1675.17
382.733 1721.41
382.766 1763.91
382.817 1819.87
382.867 1865.50
382.917 1899.87
382.967 1922.27
383.000 1930.37
383.017 1932.36
383.071 1929.13
383.126 1911.30
383.180 1879.44
383.235 1834.45
383.275 1793.12
383.315 1745.89
383.356 1693.17
383.396 1635.93
383.436 1576.64
383.475 1514.34
383.553 1383.62
383.667 1187.45
383.724 1090.67
383.781 996.772
383.820 934.492
383.859 874.449
383.899 816.897
383.938 762.030
383.977 709.988
384.016 660.863
384.055 614.696
384.095 571.598
384.134 531.313
384.173 493.891
384.212 459.242
384.251 427.254
384.291 397.801
384.330 370.745
384.369 345.940
384.408 323.292
384.440 306.157
384.472 290.249
384.504 275.488
384.536 261.837
384.568 249.136
384.600 237.391
384.633 226.461
384.665 216.350
384.697 206.933
384.729 198.185
384.761 190.052
384.793 182.507
384.825 175.458
384.857 168.905
384.889 162.767
384.921 157.049
384.960 150.538
384.999 144.522
385.039 138.951
385.078 133.781
385.117 128.974
385.156 124.494
385.195 120.312
385.235 116.408
385.274 112.739
385.313 109.293
385.352 106.051
385.391 102.995
385.431 100.110
385.470 97.3827
385.509 94.8001
385.548 92.3572
385.591 89.8239
385.634 87.4318
385.676 85.1592
385.719 83.0073
385.805 79.0120
385.890 75.3872
385.976 72.0847
386.061 69.0642
386.147 66.2920
386.232 63.7395
386.310 61.5712
386.389 59.5508
386.467 57.6642
386.546 55.9012
386.624 54.2463
386.702 52.6922
386.781 51.2302
386.859 49.8545
386.937 48.5546
387.016 47.3263
387.094 46.1640
387.173 45.0642
387.251 44.0196
387.329 43.0287
387.408 42.0853
387.486 41.1885
387.643 39.5170
387.799 37.9946
387.956 36.6015
388.113 35.3239
388.270 34.1472
388.426 33.0617
388.583 32.0564
388.740 31.1243
388.868 30.4100
388.996 29.7363
389.125 29.0991
389.253 28.4965
389.381 27.9249
389.509 27.3828
389.638 26.8673
389.766 26.3774
389.894 25.9104
390.022 25.4656
390.151 25.0408
390.279 24.6354
390.535 23.8768
390.792 23.1814
390.949 22.7841
391.105 22.4063
391.262 22.0463
391.419 21.7034
391.576 21.3759
391.732 21.0632
392.046 20.4781
392.359 19.9413
392.673 19.4473
392.986 18.9914
393.300 18.5693
393.642 18.1433
393.984 17.7495
394.326 17.3844
394.668 17.0452
395.010 16.7293
395.352 16.4344
395.694 16.1586
396.036 15.9000
396.349 15.6765
396.663 15.4651
396.976 15.2647
397.290 15.0747
397.603 14.8943
397.917 14.7228
398.230 14.5596
398.544 14.4040
398.857 14.2556
399.171 14.1139
399.484 13.9785
399.798 13.8489
400.111 13.7248
400.425 13.6059
401.052 13.3823
401.679 13.1758
402.306 12.9847
402.933 12.8072
403.559 12.6421
404.186 12.4879
404.813 12.3438
405.440 12.2087
406.067 12.0819
406.580 11.9838
407.093 11.8903
407.606 11.8014
408.119 11.7166
408.632 11.6354
409.145 11.5577
409.658 11.4832
410.171 11.4118
410.684 11.3434
411.197 11.2776
412.223 11.1538
413.249 11.0392
414.275 10.9327
414.902 10.8713
415.529 10.8125
416.156 10.7561
416.783 10.7020
417.410 10.6500
418.037 10.6000
419.291 10.5056
420.545 10.4180
421.799 10.3364
423.053 10.2603
424.307 10.1890
425.789 10.1106
427.271 10.0376
428.753 9.96966
430.235 9.90617
431.717 9.84673
433.198 9.79125
434.680 9.73872
436.162 9.68924
437.416 9.64961
438.670 9.61177
439.924 9.57560
441.178 9.54110
442.432 9.50807
443.686 9.47638
444.940 9.44604
446.194 9.41695
447.448 9.38894
448.702 9.36203
451.210 9.31122
453.718 9.26402
456.226 9.22001
458.734 9.17892
461.241 9.14040
463.749 9.10423
466.257 9.07021
468.765 9.03809
471.273 9.00775
473.781 8.97902
476.289 8.95175
479.253 8.92146
482.217 8.89260
485.181 8.86538
488.145 8.83967
491.108 8.81524
494.072 8.79194
497.036 8.76972
500.000 8.74852
504.784 8.71634
509.567 8.68633
514.351 8.65822
519.134 8.63183
523.917 8.60715
528.701 8.58363
533.484 8.56136
538.268 8.54025
545.785 8.50924
549.543 8.49446
553.302 8.48032
560.819 8.45331
568.335 8.42807
575.852 8.40422
583.369 8.38175
590.886 8.36045
598.403 8.34014
604.553 8.32428
610.703 8.30900
623.004 8.28007
635.304 8.25290
647.604 8.22728
659.905 8.20302
672.205 8.17994
684.505 8.15792
696.806 8.13685
706.373 8.12108
715.940 8.10577
725.507 8.09088
735.073 8.07632
740.540 8.06820
748.057 8.05723
755.574 8.04647
763.091 8.03591
770.608 8.02556
778.125 8.01540
785.642 8.00547
789.400 8.00058
793.158 7.99577
796.917 7.99102
800.675 7.98634
803.750 7.98258
806.825 7.97891
809.901 7.97532
812.976 7.97186
816.051 7.96854
819.126 7.96542
820.663 7.96396
822.201 7.96259
823.738 7.96133
825.276 7.96020
826.643 7.95934
828.009 7.95864
829.376 7.95816
830.743 7.95795
832.109 7.95809
832.793 7.95832
833.476 7.95870
834.160 7.95925
834.843 7.95999
835.526 7.96097
836.210 7.96223
836.893 7.96383
837.576 7.96586
838.260 7.96841
838.943 7.97161
839.626 7.97565
839.968 7.97805
840.310 7.98077
840.651 7.98386
840.993 7.98737
841.335 7.99137
841.676 7.99594
842.061 8.00191
842.445 8.00893
842.830 8.01724
843.214 8.02716
843.406 8.03286
843.598 8.03913
843.791 8.04605
843.983 8.05371
844.175 8.06224
844.367 8.07175
844.559 8.08242
844.751 8.09442
844.976 8.11045
845.200 8.12910
845.312 8.13961
845.424 8.15102
845.536 8.16345
845.648 8.17703
845.761 8.19192
845.873 8.20830
845.985 8.22640
846.097 8.24650
846.209 8.26894
846.321 8.29419
846.433 8.32282
846.545 8.35563
846.604 8.37486
846.663 8.39569
846.722 8.41839
846.780 8.44323
846.839 8.47060
846.898 8.50081
846.956 8.53439
847.015 8.57191
847.074 8.61414
847.133 8.66178
847.191 8.71586
847.250 8.77756
847.309 8.84827
847.367 8.92962
847.397 8.97494
847.426 9.02350
847.456 9.07592
847.485 9.13215
847.525 9.21616
847.565 9.30893
847.605 9.41192
847.645 9.52572
847.685 9.65208
847.725 9.79168
847.765 9.94660
847.805 10.1176
847.825 10.2102
847.845 10.3070
847.865 10.4088
847.885 10.5158
847.905 10.6286
847.925 10.7466
847.945 10.8704
847.965 11.0003
847.986 11.1372
848.006 11.2801
848.026 11.4298
848.046 11.5867
848.066 11.7509
848.086 11.9228
848.126 12.2907
848.155 12.5827
848.184 12.8939
848.214 13.2252
848.243 13.5763
848.272 13.9505
848.302 14.3461
848.331 14.7666
848.360 15.2099
848.390 15.6799
848.419 16.1758
848.449 16.6983
848.478 17.2462
848.507 17.8236
848.537 18.4272
848.566 19.0615
848.595 19.7225
848.641 20.8039
848.686 21.9550
848.732 23.1754
848.777 24.4639
848.822 25.8182
848.868 27.2356
848.913 28.7121
848.958 30.2393
849.017 32.2892
849.076 34.4049
849.193 38.7610
849.311 43.1418
849.428 47.3430
849.492 49.4817
849.556 51.4641
849.615 53.1184
849.674 54.5904
849.732 55.8573
849.791 56.8990
849.855 57.7599
849.905 58.2152
849.954 58.4846
850.000 58.5656
850.050 58.4645
850.100 58.1678
850.149 57.7022
850.197 57.0661
850.247 56.2237
850.297 55.2133
850.348 54.0452
850.398 52.7329
850.462 50.8750
850.526 48.8433
850.627 45.3763
850.727 41.6961
850.929 34.2136
851.011 31.2722
851.093 28.4786
851.135 27.1460
851.176 25.8621
851.217 24.6300
851.258 23.4546
851.290 22.5750
851.322 21.7323
851.354 20.9240
851.386 20.1503
851.418 19.4112
851.450 18.7064
851.482 18.0357
851.514 17.3985
851.542 16.8773
851.569 16.3818
851.597 15.9079
851.624 15.4585
851.651 15.0298
851.679 14.6241
851.706 14.2381
851.734 13.8737
851.761 13.5276
851.789 13.2017
851.816 12.8929
851.844 12.6026
851.871 12.3281
851.898 12.0706
851.926 11.8284
851.953 11.6008
851.978 11.4037
852.004 11.2178
852.029 11.0426
852.054 10.8782
852.079 10.7228
852.104 10.5771
852.129 10.4395
852.155 10.3107
852.180 10.1892
852.205 10.0755
852.230 9.96831
852.255 9.86808
852.280 9.77364
852.305 9.68538
852.331 9.60225
852.356 9.52458
852.381 9.45143
852.406 9.38283
852.431 9.31849
852.456 9.25838
852.507 9.14882
852.557 9.05229
852.607 8.96712
852.658 8.89185
852.708 8.82518
852.758 8.76598
852.795 8.72702
852.831 8.69115
852.905 8.62748
852.978 8.57290
853.051 8.52571
853.124 8.48457
853.197 8.44840
853.271 8.41634
853.344 8.38774
853.417 8.36198
853.490 8.33866
853.563 8.31741
