Kr-84(n,tot) ENDFB-8.0
Energy(eV) XS(b)
1.00000E-05 29.1757
1.03125E-05 28.7379
1.06250E-05 28.3197
1.09375E-05 27.9197
1.12500E-05 27.5365
1.15625E-05 27.1691
1.18750E-05 26.8163
1.21875E-05 26.4774
1.25000E-05 26.1512
1.28125E-05 25.8372
1.31250E-05 25.5346
1.34375E-05 25.2426
1.37500E-05 24.9607
1.43750E-05 24.4250
1.50000E-05 23.9234
1.56250E-05 23.4525
1.62500E-05 23.0093
1.68750E-05 22.5911
1.75000E-05 22.1957
1.81250E-05 21.8212
1.87500E-05 21.4657
1.93750E-05 21.1278
2.00000E-05 20.8060
2.09375E-05 20.3509
2.18750E-05 19.9257
2.28125E-05 19.5273
2.37500E-05 19.1531
2.46875E-05 18.8006
2.56250E-05 18.4679
2.65625E-05 18.1533
2.75000E-05 17.8551
2.84375E-05 17.5720
2.93750E-05 17.3028
3.03125E-05 17.0464
3.12500E-05 16.8018
3.21875E-05 16.5681
3.31250E-05 16.3447
3.40625E-05 16.1306
3.50000E-05 15.9254
3.59375E-05 15.7284
3.68750E-05 15.5392
3.78125E-05 15.3571
3.87500E-05 15.1819
3.96875E-05 15.0130
4.06250E-05 14.8502
4.25000E-05 14.5411
4.43750E-05 14.2523
4.62500E-05 13.9816
4.81250E-05 13.7274
5.00000E-05 13.4879
5.15625E-05 13.2987
5.31250E-05 13.1181
5.46875E-05 12.9455
5.62500E-05 12.7804
5.78125E-05 12.6223
5.93750E-05 12.4706
6.09375E-05 12.3249
6.25000E-05 12.1850
6.40625E-05 12.0503
6.56250E-05 11.9207
6.71875E-05 11.7958
6.87500E-05 11.6753
7.18750E-05 11.4466
7.50000E-05 11.2329
7.81250E-05 11.0327
8.12500E-05 10.8446
8.43750E-05 10.6675
8.75000E-05 10.5004
9.06250E-05 10.3424
9.37500E-05 10.1927
9.68750E-05 10.0507
0.000100000 9.91575
0.000103125 9.78727
0.000106250 9.66480
0.000109375 9.54790
0.000112500 9.43617
0.000115625 9.32926
0.000118750 9.22685
0.000121875 9.12863
0.000125000 9.03435
0.000128125 8.94375
0.000131250 8.85661
0.000134375 8.77273
0.000137500 8.69191
0.000143750 8.53879
0.000150000 8.39601
0.000156250 8.26250
0.000162500 8.13734
0.000168750 8.01974
0.000175000 7.90900
0.000181250 7.80451
0.000187500 7.70573
0.000193750 7.61218
0.000200000 7.52345
0.000209375 7.39855
0.000218750 7.28253
0.000228125 7.17443
0.000237500 7.07344
0.000246875 6.97886
0.000256250 6.89007
0.000265625 6.80654
0.000275000 6.72780
0.000284375 6.65344
0.000293750 6.58309
0.000303125 6.51642
0.000312500 6.45315
0.000321875 6.39302
0.000331250 6.33579
0.000340625 6.28124
0.000350000 6.22920
0.000359375 6.17948
0.000368750 6.13194
0.000378125 6.08642
0.000387500 6.04281
0.000396875 6.00097
0.000406250 5.96080
0.000425000 5.88508
0.000443750 5.81494
0.000462500 5.74977
0.000481250 5.68905
0.000500000 5.63233
0.000515625 5.58783
0.000531250 5.54565
0.000546875 5.50559
0.000562500 5.46750
0.000578125 5.43124
0.000593750 5.39667
0.000609375 5.36367
0.000625000 5.33215
0.000640625 5.30199
0.000656250 5.27312
0.000671875 5.24545
0.000687500 5.21890
0.000718750 5.16891
0.000750000 5.12267
0.000781250 5.07976
0.000812500 5.03983
0.000843750 5.00257
0.000875000 4.96771
0.000906250 4.93503
0.000937500 4.90433
0.000968750 4.87542
0.00100000 4.84815
0.00103125 4.82238
0.00106250 4.79798
0.00109375 4.77485
0.00112500 4.75289
0.00115625 4.73200
0.00118750 4.71212
0.00121875 4.69316
0.00125000 4.67506
0.00128125 4.65776
0.00131250 4.64121
0.00134375 4.62536
0.00137500 4.61017
0.00143750 4.58157
0.00150000 4.55515
0.00156250 4.53064
0.00162500 4.50784
0.00168750 4.48657
0.00175000 4.46668
0.00181250 4.44803
0.00187500 4.43050
0.00193750 4.41400
0.00200000 4.39842
0.00209375 4.37663
0.00218750 4.35653
0.00228125 4.33791
0.00237500 4.32061
0.00246875 4.30449
0.00256250 4.28943
0.00265625 4.27531
0.00275000 4.26206
0.00284375 4.24959
0.00293750 4.23783
0.00303125 4.22672
0.00312500 4.21619
0.00321875 4.20622
0.00331250 4.19674
0.00340625 4.18773
0.00350000 4.17914
0.00359375 4.17095
0.00368750 4.16313
0.00378125 4.15565
0.00387500 4.14850
0.00396875 4.14163
0.00406250 4.13505
0.00425000 4.12265
0.00443750 4.11118
0.00462500 4.10052
0.00481250 4.09059
0.00500000 4.08132
0.00515625 4.07404
0.00531250 4.06713
0.00546875 4.06057
0.00562500 4.05433
0.00578125 4.04838
0.00593750 4.04270
0.00609375 4.03728
0.00625000 4.03209
0.00640625 4.02712
0.00656250 4.02235
0.00671875 4.01778
0.00687500 4.01338
0.00718750 4.00509
0.00750000 3.99740
0.00781250 3.99023
0.00812500 3.98354
0.00843750 3.97728
0.00875000 3.97140
0.00906250 3.96587
0.00937500 3.96066
0.00968750 3.95573
0.0100000 3.95107
0.0103125 3.94665
0.0106250 3.94245
0.0109375 3.93845
0.0112500 3.93464
0.0115625 3.93101
0.0118750 3.92754
0.0121875 3.92422
0.0125000 3.92104
0.0128125 3.91800
0.0131250 3.91507
0.0134375 3.91226
0.0137500 3.90956
0.0143750 3.90445
0.0150000 3.89971
0.0156250 3.89528
0.0162500 3.89114
0.0168750 3.88726
0.0175000 3.88361
0.0181250 3.88017
0.0187500 3.87692
0.0193750 3.87385
0.0200000 3.87093
0.0206625 3.86801
0.0213250 3.86523
0.0219875 3.86260
0.0226500 3.86009
0.0233125 3.85770
0.0239750 3.85542
0.0246375 3.85324
0.0253000 3.85116
0.0264578 3.84773
0.0276156 3.84453
0.0287734 3.84155
0.0299313 3.83876
0.0310891 3.83614
0.0322469 3.83367
0.0334047 3.83135
0.0345625 3.82915
0.0355274 3.82741
0.0364922 3.82575
0.0374570 3.82415
0.0384219 3.82262
0.0393867 3.82115
0.0403516 3.81974
0.0413164 3.81838
0.0422813 3.81707
0.0442109 3.81460
0.0461406 3.81229
0.0480703 3.81014
0.0500000 3.80812
0.0515625 3.80657
0.0531250 3.80510
0.0546875 3.80369
0.0562500 3.80235
0.0578125 3.80107
0.0593750 3.79984
0.0609375 3.79867
0.0625000 3.79754
0.0640625 3.79645
0.0656250 3.79541
0.0671875 3.79440
0.0687500 3.79344
0.0718750 3.79160
0.0750000 3.78989
0.0781250 3.78829
0.0812500 3.78679
0.0843750 3.78538
0.0875000 3.78405
0.0906250 3.78279
0.0937500 3.78160
0.0968750 3.78047
0.100000 3.77939
0.103125 3.77837
0.106250 3.77740
0.109375 3.77647
0.112500 3.77558
0.115625 3.77473
0.118750 3.77391
0.121875 3.77313
0.125000 3.77238
0.128125 3.77166
0.131250 3.77097
0.134375 3.77030
0.137500 3.76965
0.143750 3.76843
0.150000 3.76729
0.156250 3.76622
0.162500 3.76521
0.168750 3.76426
0.175000 3.76337
0.181250 3.76253
0.187500 3.76172
0.193750 3.76097
0.200000 3.76024
0.209375 3.75922
0.218750 3.75827
0.228125 3.75738
0.237500 3.75654
0.246875 3.75576
0.256250 3.75502
0.265625 3.75431
0.275000 3.75365
0.284375 3.75302
0.293750 3.75242
0.303125 3.75185
0.312500 3.75131
0.321875 3.75079
0.331250 3.75030
0.340625 3.74982
0.350000 3.74937
0.359375 3.74893
0.368750 3.74851
0.378125 3.74810
0.387500 3.74772
0.396875 3.74734
0.406250 3.74698
0.425000 3.74629
0.443750 3.74565
0.462500 3.74505
0.500000 3.74395
0.531250 3.74313
0.562500 3.74237
0.593750 3.74168
0.625000 3.74103
0.687500 3.73988
0.750000 3.73887
0.812500 3.73798
0.875000 3.73719
0.937500 3.73648
1.00000 3.73583
1.06250 3.73523
1.12500 3.73468
1.18750 3.73418
1.25000 3.73371
1.37500 3.73286
1.50000 3.73211
1.62500 3.73145
1.75000 3.73085
1.87500 3.73030
2.00000 3.72980
2.18750 3.72912
2.37500 3.72850
2.56250 3.72795
2.75000 3.72744
2.93750 3.72697
3.12500 3.72653
3.31250 3.72612
3.50000 3.72573
3.87500 3.72502
4.25000 3.72437
4.62500 3.72378
5.00000 3.72323
5.31250 3.72279
5.62500 3.72238
5.93750 3.72198
6.25000 3.72160
6.87500 3.72088
7.50000 3.72020
8.12500 3.71955
8.75000 3.71893
9.37500 3.71833
10.0000 3.71776
10.6250 3.71720
11.2500 3.71665
11.8750 3.71611
12.5000 3.71559
13.7500 3.71456
15.0000 3.71357
16.2500 3.71260
17.5000 3.71164
18.7500 3.71070
20.0000 3.70977
21.8750 3.70840
23.7500 3.70704
25.6250 3.70569
27.5000 3.70436
29.3750 3.70303
31.2500 3.70171
33.1250 3.70039
35.0000 3.69908
38.7500 3.69646
42.5000 3.69384
46.2500 3.69122
50.0000 3.68859
53.1250 3.68640
56.2500 3.68419
62.5000 3.67977
68.7500 3.67531
75.0000 3.67081
81.2500 3.66626
87.5000 3.66166
93.7500 3.65700
100.000 3.65229
106.250 3.64752
112.500 3.64269
125.000 3.63283
137.500 3.62268
150.000 3.61221
159.375 3.60412
168.750 3.59585
175.000 3.59020
187.500 3.57860
200.000 3.56654
209.375 3.55716
218.750 3.54748
228.125 3.53747
237.500 3.52709
246.875 3.51632
256.250 3.50512
265.625 3.49344
275.000 3.48124
284.375 3.46846
293.750 3.45503
303.125 3.44088
312.500 3.42591
321.875 3.41002
331.250 3.39309
340.625 3.37496
345.313 3.36538
350.000 3.35543
356.445 3.34105
362.891 3.32586
369.336 3.30973
375.781 3.29246
382.227 3.27405
388.672 3.25418
391.895 3.24372
395.117 3.23272
398.340 3.22133
401.563 3.20951
407.422 3.18652
410.352 3.17427
413.281 3.16148
416.211 3.14807
419.141 3.13402
422.070 3.11928
425.000 3.10379
428.223 3.08575
431.445 3.06664
434.668 3.04629
437.891 3.02455
441.113 3.00135
444.336 2.97640
445.947 2.96325
447.559 2.94953
449.170 2.93532
450.781 2.92056
452.832 2.90083
454.883 2.88001
456.934 2.85801
458.984 2.83487
461.035 2.81019
463.086 2.78397
465.137 2.75604
467.188 2.72622
468.799 2.70133
470.410 2.67504
472.022 2.64721
473.633 2.61771
475.244 2.58638
476.856 2.55304
477.661 2.53555
478.467 2.51748
479.273 2.49880
480.078 2.47949
481.323 2.44828
482.569 2.41533
483.814 2.38048
485.059 2.34356
486.304 2.30440
486.926 2.28395
487.549 2.26288
488.172 2.24110
488.794 2.21860
489.417 2.19536
490.039 2.17135
490.845 2.13907
491.651 2.10536
492.456 2.07012
493.262 2.03326
494.068 1.99467
494.873 1.95426
495.679 1.91189
496.484 1.86746
496.924 1.84231
497.363 1.81649
497.803 1.78998
498.242 1.76276
498.682 1.73480
499.121 1.70610
499.561 1.67662
500.000 1.64637
500.587 1.60473
501.173 1.56165
501.760 1.51710
502.346 1.47111
502.933 1.42370
503.226 1.39948
503.520 1.37493
503.813 1.35006
504.106 1.32489
504.400 1.29944
504.693 1.27375
505.096 1.23811
505.499 1.20219
505.903 1.16617
506.306 1.13023
506.709 1.09464
507.113 1.05970
507.516 1.02584
507.919 0.993575
508.267 0.967500
508.616 0.943651
508.964 0.922696
509.312 0.905463
509.487 0.898552
509.661 0.892980
509.835 0.888910
510.009 0.886540
510.183 0.886088
510.357 0.887802
510.531 0.891961
510.705 0.898884
510.870 0.908316
511.035 0.920891
511.200 0.936992
511.365 0.957043
511.530 0.981562
511.695 1.01110
511.778 1.02796
511.860 1.04631
511.943 1.06627
512.025 1.08790
512.106 1.11072
512.186 1.13534
512.266 1.16188
512.346 1.19049
512.410 1.21496
512.474 1.24086
512.539 1.26831
512.630 1.31043
512.722 1.35608
512.814 1.40564
512.905 1.45929
513.006 1.52357
513.107 1.59369
513.208 1.67022
513.258 1.71107
513.308 1.75375
513.359 1.79842
513.409 1.84500
513.460 1.89367
513.510 1.94452
513.561 1.99765
513.611 2.05316
513.661 2.11118
513.712 2.17183
513.758 2.22944
513.803 2.28930
513.849 2.35177
513.895 2.41669
513.941 2.48446
513.987 2.55491
514.033 2.62831
514.078 2.70480
514.124 2.78470
514.170 2.86782
514.216 2.95448
514.262 3.04485
514.308 3.13933
514.353 3.23770
514.399 3.34035
514.445 3.44751
514.509 3.60573
514.573 3.77364
514.638 3.95249
514.702 4.14253
514.766 4.34521
514.830 4.56085
514.894 4.79117
514.958 5.03658
515.009 5.24161
515.059 5.45723
515.110 5.68455
515.160 5.92434
515.210 6.17745
515.261 6.44478
515.311 6.72734
515.362 7.02619
515.412 7.34317
515.462 7.67830
515.513 8.03361
515.563 8.41064
515.614 8.81109
515.664 9.23684
515.714 9.68996
515.765 10.1727
515.820 10.7364
515.875 11.3422
515.930 11.9942
515.985 12.6973
516.040 13.4568
516.095 14.2790
516.150 15.1710
516.205 16.1412
516.255 17.1089
516.306 18.1571
516.356 19.2975
516.407 20.5417
516.457 21.9030
516.507 23.3974
516.533 24.2000
516.558 25.0431
516.583 25.9294
516.608 26.8619
516.633 27.8440
516.659 28.8792
516.684 29.9714
516.709 31.1249
516.734 32.3441
516.759 33.6341
516.785 35.0001
516.810 36.4480
516.835 37.9841
516.860 39.6150
516.885 41.3482
516.911 43.1915
516.936 45.1534
516.961 47.2430
516.986 49.4702
517.011 51.8456
517.037 54.3908
517.062 57.0980
517.087 59.9898
517.112 63.0801
517.137 66.3836
517.163 69.9158
517.188 73.6935
517.213 77.7342
517.238 82.0742
517.264 86.6987
517.289 91.6449
517.314 96.9342
517.339 102.589
517.364 108.633
517.390 115.090
517.415 121.985
517.440 129.344
517.465 137.194
517.490 145.562
517.516 154.475
517.541 163.961
517.566 174.049
517.591 184.766
517.616 196.141
517.642 208.201
517.667 220.973
517.692 234.483
517.717 248.758
517.742 263.820
517.768 279.693
517.793 296.396
517.818 313.947
517.850 337.558
517.882 362.597
517.914 389.082
517.946 417.019
517.978 446.405
518.011 477.226
518.043 509.454
518.075 542.941
518.125 598.409
518.176 656.704
518.226 717.546
518.276 780.454
518.478 1039.77
518.528 1102.70
518.579 1163.12
518.629 1220.11
518.679 1272.78
518.713 1305.16
518.747 1334.88
518.780 1361.91
518.814 1385.86
518.857 1411.87
518.900 1432.32
518.943 1447.01
518.986 1455.77
519.000 1457.35
519.014 1458.26
519.061 1456.53
519.107 1447.74
519.154 1432.05
519.200 1409.73
519.241 1385.39
519.281 1356.67
519.321 1323.92
519.361 1287.62
519.402 1247.78
519.442 1205.21
519.523 1113.28
519.603 1015.37
519.684 915.226
519.754 829.296
519.823 745.757
519.893 666.061
519.928 627.960
519.963 591.319
520.003 550.585
520.044 511.979
520.084 475.377
520.124 440.998
520.165 408.682
520.205 378.571
520.245 350.548
520.286 324.556
520.308 311.139
520.330 298.356
520.352 286.131
520.374 274.448
520.396 263.292
520.418 252.647
520.440 242.496
520.462 232.823
520.484 223.610
520.506 214.841
520.528 206.498
520.550 198.564
520.572 191.023
520.594 183.856
520.616 177.049
520.638 170.583
520.678 159.550
520.718 149.547
520.759 140.434
520.799 132.172
520.839 124.641
520.880 117.807
520.920 111.567
520.960 105.891
521.001 100.696
521.041 95.9554
521.082 91.6011
521.122 87.6133
521.162 83.9352
521.203 80.5522
521.243 77.4181
521.283 74.5223
521.324 71.8273
521.364 69.3259
521.404 66.9873
521.445 64.8070
521.485 62.7599
521.525 60.8433
521.566 59.0366
521.606 57.3385
521.646 55.7319
521.687 54.2167
521.727 52.7783
521.767 51.4175
521.848 48.8927
521.929 46.6036
521.995 44.8816
522.061 43.2840
522.127 41.7957
522.193 40.4059
522.259 39.1032
522.325 37.8835
522.391 36.7375
522.457 35.6589
522.523 34.6404
522.589 33.6803
522.655 32.7723
522.721 31.9126
522.787 31.0974
522.853 30.3234
522.919 29.5878
522.985 28.8879
523.066 28.0770
523.147 27.3117
523.227 26.5884
523.308 25.9040
523.389 25.2554
523.469 24.6400
523.550 24.0556
523.631 23.4998
523.792 22.4665
523.954 21.5264
524.115 20.6679
524.276 19.8812
524.372 19.4466
524.467 19.0326
524.658 18.2617
524.849 17.5583
525.039 16.9142
525.230 16.3222
525.421 15.7771
525.611 15.2733
525.802 14.8064
525.964 14.4372
526.125 14.0898
526.286 13.7623
526.448 13.4531
526.609 13.1608
526.771 12.8841
526.932 12.6218
527.093 12.3729
527.255 12.1365
527.416 11.9115
527.578 11.6974
527.739 11.4932
527.900 11.2984
528.062 11.1123
528.384 10.7644
528.707 10.4452
529.030 10.1515
529.353 9.88049
529.676 9.62976
529.998 9.39702
530.321 9.18054
530.644 8.97871
530.967 8.79021
531.231 8.64497
531.495 8.50722
531.759 8.37640
532.023 8.25201
532.287 8.13353
532.551 8.02055
532.815 7.91267
533.079 7.80959
533.344 7.71101
533.608 7.61665
534.136 7.43964
534.664 7.27670
535.192 7.12626
535.515 7.03987
535.838 6.95737
536.161 6.87849
536.483 6.80302
537.129 6.66142
537.775 6.53110
538.420 6.41075
539.066 6.29931
539.711 6.19580
540.357 6.09945
541.120 5.99380
541.883 5.89614
542.646 5.80558
543.409 5.72141
544.172 5.64304
544.934 5.56996
545.697 5.50141
546.460 5.43700
547.106 5.38552
547.751 5.33659
548.397 5.29004
549.043 5.24569
549.688 5.20339
550.334 5.16300
550.979 5.12440
551.625 5.08747
552.270 5.05210
552.916 5.01818
553.562 4.98565
554.207 4.95441
555.498 4.89550
556.789 4.84092
558.081 4.79019
559.372 4.74293
560.663 4.69878
561.954 4.65744
563.245 4.61865
564.536 4.58217
565.827 4.54779
567.118 4.51534
568.234 4.48874
569.349 4.46338
571.579 4.41610
573.809 4.37261
576.039 4.33260
578.269 4.29565
580.499 4.26139
582.729 4.22952
584.960 4.19980
587.542 4.16779
590.124 4.13805
592.706 4.11033
595.289 4.08444
597.871 4.06015
600.453 4.03734
603.035 4.01585
605.618 3.99554
609.843 3.96463
614.069 3.93632
618.294 3.91010
622.520 3.88574
626.745 3.86303
630.971 3.84178
635.196 3.82182
639.422 3.80302
644.586 3.78148
649.751 3.76124
654.916 3.74217
660.080 3.72419
665.245 3.70709
670.409 3.69084
680.738 3.66045
690.598 3.63374
700.457 3.60872
710.317 3.58524
720.176 3.56291
730.036 3.54160
739.895 3.52121
749.755 3.50150
759.615 3.48237
770.883 3.46118
782.151 3.44056
804.687 3.40031
827.223 3.36120
849.759 3.32255
868.539 3.29043
887.319 3.25815
906.100 3.22552
924.880 3.19239
943.660 3.15847
962.440 3.12368
981.220 3.08785
1000.00 3.05080
1024.33 3.00043
1036.49 2.97416
1048.66 2.94708
1060.82 2.91909
1072.99 2.89005
1085.15 2.85994
1097.31 2.82859
1106.92 2.80288
1116.52 2.77628
1121.32 2.76265
1126.12 2.74878
1130.92 2.73467
1135.73 2.72037
1137.97 2.71364
1140.21 2.70690
1142.45 2.70016
1144.69 2.69347
1146.93 2.68687
1149.17 2.68049
1150.29 2.67744
1151.41 2.67455
1152.53 2.67189
1153.65 2.66955
1154.37 2.66831
1155.09 2.66737
1155.81 2.66686
1156.53 2.66694
1157.25 2.66792
1157.61 2.66889
1157.97 2.67029
1158.33 2.67226
1158.69 2.67499
1159.05 2.67876
1159.41 2.68400
1159.69 2.68953
1159.97 2.69699
1160.11 2.70176
1160.25 2.70751
1160.39 2.71459
1160.53 2.72351
1160.67 2.73505
1160.81 2.75037
1160.95 2.77120
1161.02 2.78443
1161.09 2.80005
1161.16 2.81854
1161.23 2.84047
1161.30 2.86650
1161.37 2.89737
1161.44 2.93398
1161.51 2.97730
1161.58 3.02845
1161.65 3.08866
1161.72 3.15385
1161.78 3.22919
1161.85 3.31591
1161.91 3.41530
1161.98 3.52869
1162.01 3.59206
1162.04 3.65745
1162.08 3.72912
1162.11 3.80289
1162.14 3.88353
1162.17 3.96631
1162.21 4.05654
1162.24 4.14889
1162.27 4.24927
1162.30 4.35171
1162.34 4.46272
1162.37 4.57566
1162.40 4.69765
1162.43 4.82137
1162.47 4.95459
1162.50 5.08924
1162.53 5.23375
1162.56 5.37931
1162.63 5.69125
1162.69 6.02430
1162.75 6.34943
1162.81 6.69020
1162.87 7.04493
1162.93 7.41156
1163.05 8.17048
1163.17 8.94349
1163.30 9.76417
1163.37 10.1560
1163.43 10.5286
1163.52 11.0034
1163.61 11.4185
1163.67 11.6376
1163.72 11.8275
1163.77 11.9596
1163.81 12.0698
1163.87 12.1734
1163.95 12.2603
1164.00 12.2767
1164.00 12.2765
1164.01 12.2753
1164.02 12.2729
1164.04 12.2651
1164.08 12.2363
1164.16 12.1236
1164.24 11.9356
1164.32 11.6752
1164.40 11.3680
1164.47 11.0145
1164.53 10.7315
1164.58 10.4346
1164.69 9.79013
1164.81 9.05391
1164.98 7.92837
1165.04 7.56176
1165.13 7.02120
1165.22 6.51205
1165.26 6.26608
1165.30 6.02869
1165.35 5.80040
1165.39 5.58646
1165.44 5.37723
1165.48 5.17801
1165.52 4.98892
1165.57 4.81395
1165.61 4.64494
1165.65 4.48596
1165.70 4.33685
1165.74 4.20047
1165.79 4.04749
1165.84 3.90971
1165.90 3.78352
1165.95 3.66833
1166.00 3.56354
1166.05 3.46849
1166.10 3.38254
1166.15 3.30504
1166.20 3.23535
1166.25 3.17285
1166.30 3.11692
1166.35 3.06699
1166.41 3.02250
1166.46 2.98292
1166.51 2.94778
1166.56 2.91661
1166.61 2.88848
1166.66 2.86409
1166.71 2.84251
1166.76 2.82340
1166.87 2.79152
1166.97 2.76646
1167.07 2.74664
1167.17 2.73082
1167.27 2.71804
1167.38 2.70759
1167.49 2.69774
1167.61 2.68961
1167.84 2.67694
1168.08 2.66729
1168.31 2.65961
1168.54 2.65323
1168.78 2.64785
1169.01 2.64320
1169.24 2.63912
1169.71 2.63224
1170.18 2.62661
1170.64 2.62183
1171.11 2.61769
1171.57 2.61401
1172.04 2.61068
1172.51 2.60761
1173.44 2.60206
1174.37 2.59705
1175.31 2.59240
1176.24 2.58801
1177.17 2.58380
1179.04 2.57570
1180.91 2.56786
1182.77 2.56015
1184.64 2.55250
1186.51 2.54487
1189.77 2.53146
1193.04 2.51792
1196.31 2.50418
1199.57 2.49022
1204.47 2.46876
1209.37 2.44668
1214.27 2.42387
1219.17 2.40032
1224.07 2.37593
1228.97 2.35062
1233.87 2.32436
1238.77 2.29708
1243.90 2.26725
1249.03 2.23611
1254.17 2.20350
1259.30 2.16927
1264.43 2.13334
1269.57 2.09547
1274.70 2.05549
1279.83 2.01324
1284.26 1.97465
1288.70 1.93394
1293.13 1.89096
1297.56 1.84547
1302.00 1.79720
1306.43 1.74579
1310.86 1.69109
1315.30 1.63247
1317.86 1.59660
1320.43 1.55922
1323.00 1.52021
1325.56 1.47948
1328.13 1.43688
1330.69 1.39232
1333.26 1.34565
1335.83 1.29672
1338.28 1.24775
1340.73 1.19646
1343.18 1.14270
1345.63 1.08634
1348.08 1.02724
1349.30 0.996626
1350.53 0.965292
1351.75 0.933225
1352.98 0.900426
1354.20 0.866918
1355.43 0.832721
1356.71 0.796025
1357.99 0.758570
1359.28 0.720374
1360.56 0.681490
1361.84 0.641990
1363.12 0.601973
1364.41 0.561571
1365.69 0.520960
1366.80 0.485865
1367.91 0.451007
1369.02 0.416565
1370.12 0.382901
1371.23 0.350333
1372.34 0.319374
1372.90 0.304659
1373.45 0.290571
