Ru-101(n,g) ENDFB-8.0
Energy(eV) XS(b)
1.00000E-05 262.417
1.03125E-05 258.410
1.06250E-05 254.582
1.09375E-05 250.918
1.12500E-05 247.409
1.15625E-05 244.043
1.18750E-05 240.810
1.21875E-05 237.703
1.25000E-05 234.713
1.28125E-05 231.833
1.31250E-05 229.056
1.34375E-05 226.377
1.37500E-05 223.790
1.43750E-05 218.871
1.50000E-05 214.263
1.56250E-05 209.934
1.62500E-05 205.857
1.68750E-05 202.009
1.75000E-05 198.369
1.81250E-05 194.918
1.87500E-05 191.642
1.93750E-05 188.526
2.00000E-05 185.557
2.09375E-05 181.355
2.18750E-05 177.426
2.28125E-05 173.742
2.37500E-05 170.279
2.46875E-05 167.014
2.56250E-05 163.931
2.65625E-05 161.012
2.75000E-05 158.243
2.84375E-05 155.613
2.93750E-05 153.110
3.03125E-05 150.724
3.12500E-05 148.446
3.21875E-05 146.268
3.31250E-05 144.183
3.40625E-05 142.185
3.50000E-05 140.268
3.59375E-05 138.426
3.68750E-05 136.655
3.78125E-05 134.951
3.87500E-05 133.308
3.96875E-05 131.724
4.06250E-05 130.195
4.25000E-05 127.291
4.43750E-05 124.573
4.62500E-05 122.022
4.81250E-05 119.621
5.00000E-05 117.357
5.15625E-05 115.565
5.31250E-05 113.853
5.46875E-05 112.214
5.62500E-05 110.645
5.78125E-05 109.140
5.93750E-05 107.694
6.09375E-05 106.304
6.25000E-05 104.967
6.40625E-05 103.679
6.56250E-05 102.437
6.71875E-05 101.239
6.87500E-05 100.082
7.18750E-05 97.8823
7.50000E-05 95.8214
7.81250E-05 93.8854
8.12500E-05 92.0622
8.43750E-05 90.3413
8.75000E-05 88.7134
9.06250E-05 87.1705
9.37500E-05 85.7053
9.68750E-05 84.3117
0.000100000 82.9839
0.000103125 81.7169
0.000106250 80.5062
0.000109375 79.3478
0.000112500 78.2380
0.000115625 77.1735
0.000118750 76.1513
0.000121875 75.1687
0.000125000 74.2231
0.000128125 73.3124
0.000131250 72.4344
0.000134375 71.5872
0.000137500 70.7690
0.000143750 69.2135
0.000150000 67.7562
0.000156250 66.3873
0.000162500 65.0981
0.000168750 63.8812
0.000175000 62.7302
0.000181250 61.6391
0.000187500 60.6031
0.000193750 59.6177
0.000200000 58.6788
0.000209375 57.3501
0.000218750 56.1077
0.000228125 54.9427
0.000237500 53.8474
0.000246875 52.8152
0.000256250 51.8401
0.000265625 50.9170
0.000275000 50.0416
0.000284375 49.2099
0.000293750 48.4183
0.000303125 47.6637
0.000312500 46.9433
0.000321875 46.2546
0.000331250 45.5954
0.000340625 44.9636
0.000350000 44.3574
0.000359375 43.7750
0.000368750 43.2150
0.000378125 42.6759
0.000387500 42.1565
0.000396875 41.6557
0.000406250 41.1722
0.000425000 40.2538
0.000443750 39.3942
0.000462500 38.5875
0.000481250 37.8284
0.000500000 37.1123
0.000515625 36.5457
0.000531250 36.0043
0.000546875 35.4863
0.000562500 34.9900
0.000578125 34.5139
0.000593750 34.0568
0.000609375 33.6174
0.000625000 33.1945
0.000640625 32.7873
0.000656250 32.3946
0.000671875 32.0158
0.000687500 31.6499
0.000718750 30.9542
0.000750000 30.3026
0.000781250 29.6904
0.000812500 29.1139
0.000843750 28.5697
0.000875000 28.0549
0.000906250 27.5670
0.000937500 27.1037
0.000968750 26.6631
0.00100000 26.2432
0.00103125 25.8426
0.00106250 25.4597
0.00109375 25.0934
0.00112500 24.7425
0.00115625 24.4059
0.00118750 24.0827
0.00121875 23.7720
0.00125000 23.4730
0.00128125 23.1850
0.00131250 22.9074
0.00134375 22.6395
0.00137500 22.3808
0.00143750 21.8889
0.00150000 21.4281
0.00156250 20.9953
0.00162500 20.5876
0.00168750 20.2028
0.00175000 19.8389
0.00181250 19.4939
0.00187500 19.1663
0.00193750 18.8547
0.00200000 18.5578
0.00209375 18.1377
0.00218750 17.7448
0.00228125 17.3765
0.00237500 17.0301
0.00246875 16.7037
0.00256250 16.3954
0.00265625 16.1035
0.00275000 15.8268
0.00284375 15.5638
0.00293750 15.3135
0.00303125 15.0749
0.00312500 14.8471
0.00321875 14.6293
0.00331250 14.4209
0.00340625 14.2211
0.00350000 14.0295
0.00359375 13.8453
0.00368750 13.6683
0.00378125 13.4978
0.00387500 13.3336
0.00396875 13.1753
0.00406250 13.0224
0.00425000 12.7320
0.00443750 12.4603
0.00462500 12.2052
0.00481250 11.9652
0.00500000 11.7388
0.00515625 11.5597
0.00531250 11.3886
0.00546875 11.2248
0.00562500 11.0679
0.00578125 10.9174
0.00593750 10.7729
0.00609375 10.6340
0.00625000 10.5003
0.00640625 10.3715
0.00656250 10.2474
0.00671875 10.1276
0.00687500 10.0120
0.00718750 9.79209
0.00750000 9.58608
0.00781250 9.39256
0.00812500 9.21032
0.00843750 9.03830
0.00875000 8.87558
0.00906250 8.72135
0.00937500 8.57490
0.00968750 8.43560
0.0100000 8.30288
0.0103125 8.17625
0.0106250 8.05525
0.0109375 7.93948
0.0112500 7.82857
0.0115625 7.72219
0.0118750 7.62004
0.0121875 7.52185
0.0125000 7.42737
0.0128125 7.33637
0.0131250 7.24864
0.0134375 7.16399
0.0137500 7.08225
0.0143750 6.92683
0.0150000 6.78123
0.0156250 6.64446
0.0162500 6.51565
0.0168750 6.39407
0.0175000 6.27906
0.0181250 6.17005
0.0187500 6.06654
0.0193750 5.96808
0.0200000 5.87428
0.0206625 5.77954
0.0213250 5.68925
0.0219875 5.60308
0.0226500 5.52072
0.0233125 5.44190
0.0239750 5.36638
0.0246375 5.29393
0.0253000 5.22434
0.0264578 5.10908
0.0276156 5.00116
0.0287734 4.89984
0.0299313 4.80447
0.0310891 4.71449
0.0322469 4.62941
0.0334047 4.54879
0.0345625 4.47227
0.0355274 4.41137
0.0364922 4.35290
0.0374570 4.29671
0.0384219 4.24264
0.0393867 4.19058
0.0403516 4.14039
0.0413164 4.09197
0.0422813 4.04521
0.0442109 3.95635
0.0461406 3.87313
0.0480703 3.79498
0.0500000 3.72141
0.0515625 3.66490
0.0531250 3.61091
0.0546875 3.55925
0.0562500 3.50976
0.0578125 3.46231
0.0593750 3.41675
0.0609375 3.37296
0.0625000 3.33083
0.0640625 3.29026
0.0656250 3.25115
0.0671875 3.21343
0.0687500 3.17700
0.0718750 3.10775
0.0750000 3.04287
0.0781250 2.98191
0.0812500 2.92451
0.0843750 2.87032
0.0875000 2.81908
0.0906250 2.77052
0.0937500 2.72442
0.0968750 2.68057
0.100000 2.63881
0.103125 2.59897
0.106250 2.56090
0.109375 2.52449
0.112500 2.48961
0.115625 2.45616
0.118750 2.42405
0.121875 2.39319
0.125000 2.36351
0.128125 2.33492
0.131250 2.30738
0.134375 2.28082
0.137500 2.25517
0.143750 2.20642
0.150000 2.16074
0.156250 2.11783
0.162500 2.07742
0.168750 2.03930
0.175000 2.00325
0.181250 1.96910
0.187500 1.93669
0.193750 1.90589
0.200000 1.87657
0.209375 1.83508
0.218750 1.79629
0.228125 1.75992
0.237500 1.72575
0.246875 1.69356
0.256250 1.66317
0.265625 1.63443
0.275000 1.60719
0.284375 1.58132
0.293750 1.55671
0.303125 1.53328
0.312500 1.51092
0.321875 1.48955
0.331250 1.46912
0.340625 1.44954
0.350000 1.43077
0.359375 1.41275
0.368750 1.39544
0.378125 1.37879
0.387500 1.36276
0.396875 1.34732
0.406250 1.33244
0.425000 1.30419
0.443750 1.27775
0.462500 1.25296
0.500000 1.20780
0.531250 1.17398
0.562500 1.14301
0.625000 1.08840
0.687500 1.04167
0.750000 1.00113
0.812500 0.965556
0.875000 0.934143
0.937500 0.906089
1.00000 0.880776
1.06250 0.857881
1.12500 0.837064
1.25000 0.800603
1.37500 0.769706
1.50000 0.743195
1.62500 0.720214
1.75000 0.700181
1.87500 0.682554
2.00000 0.666888
2.18750 0.646602
2.37500 0.629516
2.56250 0.615047
2.75000 0.602810
2.93750 0.592446
3.12500 0.583670
3.31250 0.576325
3.50000 0.570257
3.87500 0.561477
4.25000 0.556606
4.43750 0.555486
4.71875 0.555358
5.00000 0.556980
5.31250 0.560812
5.62500 0.566721
5.93750 0.574766
6.25000 0.585031
6.56250 0.597642
6.87500 0.612780
7.18750 0.630680
7.50000 0.651641
7.81250 0.676043
8.12500 0.704354
8.43750 0.737160
8.75000 0.775051
8.90625 0.796163
9.06250 0.819054
9.21875 0.843762
9.37500 0.870456
9.53125 0.899331
9.68750 0.930605
9.84375 0.964529
10.0000 1.00151
10.1781 1.04766
10.3562 1.09850
10.5343 1.15426
10.7124 1.21668
10.8905 1.28629
11.0686 1.36416
11.2466 1.45165
11.3357 1.49949
11.4247 1.55038
11.5754 1.64417
11.7261 1.74894
11.8768 1.86647
11.9522 1.93069
12.0275 1.99896
12.1028 2.07165
12.1782 2.14914
12.2535 2.23191
12.3289 2.32044
12.4042 2.41534
12.4796 2.51726
12.5549 2.62698
12.6303 2.74529
12.7125 2.88524
12.7947 3.03833
12.8769 3.20723
12.9590 3.39489
13.0412 3.60548
13.0823 3.72136
13.1234 3.84586
13.1645 3.98081
13.2056 4.12884
13.2467 4.29407
13.2878 4.48304
13.3152 4.62713
13.3426 4.79026
13.3700 4.97701
13.3974 5.19165
13.4248 5.43712
13.4522 5.71261
13.5070 6.32281
13.5303 6.58271
13.5535 6.82660
13.5768 7.04437
13.6000 7.23012
13.6116 7.31083
13.6344 7.44846
13.6571 7.56808
13.7026 7.81465
13.7291 8.00624
13.7423 8.12473
13.7556 8.26072
13.7688 8.41525
13.7820 8.58798
13.8085 8.98280
13.8626 9.89650
13.8897 10.3224
13.9032 10.5074
13.9168 10.6673
13.9342 10.8312
13.9516 10.9441
13.9633 10.9911
13.9797 11.0216
13.9960 11.0154
14.0288 10.9266
14.0616 10.7998
14.0944 10.7046
14.1105 10.6848
14.1266 10.6875
14.1427 10.7142
14.1588 10.7655
14.1749 10.8410
14.1910 10.9394
14.2233 11.1997
14.2555 11.5348
14.2877 11.9349
14.3199 12.3933
14.3521 12.9064
14.3859 13.5021
14.4196 14.1581
14.4534 14.8780
14.4871 15.6665
14.5209 16.5300
14.5546 17.4763
14.5884 18.5148
14.6221 19.6566
14.6559 20.9154
14.6896 22.3062
14.7234 23.8479
14.7571 25.5628
14.7740 26.4937
14.7909 27.4782
14.8078 28.5206
14.8247 29.6249
14.8415 30.7974
14.8584 32.0424
14.8753 33.3676
14.8922 34.7783
14.9182 37.1480
14.9443 39.7744
14.9704 42.6974
14.9834 44.2845
14.9965 45.9641
15.0095 47.7437
15.0226 49.6315
15.0356 51.6365
15.0486 53.7689
15.0617 56.0399
15.0747 58.4619
15.0878 61.0489
15.1008 63.8164
15.1162 67.3294
15.1315 71.1467
15.1468 75.3080
15.1622 79.8564
15.1775 84.8424
15.1929 90.3249
15.2082 96.3732
15.2235 103.069
15.2320 107.064
15.2404 111.302
15.2489 115.804
15.2573 120.592
15.2657 125.692
15.2742 131.129
15.2826 136.935
15.2910 143.136
15.2995 149.783
15.3079 156.910
15.3164 164.562
15.3248 172.778
15.3332 181.633
15.3417 191.178
15.3501 201.477
15.3585 212.590
15.3639 220.135
15.3693 228.067
15.3747 236.409
15.3800 245.185
15.3854 254.418
15.3908 264.135
15.3961 274.361
15.4015 285.123
15.4069 296.451
15.4122 308.371
15.4176 320.914
15.4230 334.108
15.4284 347.983
15.4337 362.568
15.4391 377.892
15.4445 393.984
15.4529 420.894
15.4613 449.867
15.4698 480.993
15.4782 514.304
15.4867 549.931
15.4951 587.866
15.5035 628.106
15.5120 670.564
15.5204 715.265
15.5288 762.043
15.5373 810.730
15.5457 861.049
15.5542 912.850
15.5626 965.751
15.5710 1019.38
15.5795 1073.24
15.5961 1178.57
15.6127 1279.11
15.6211 1326.27
15.6294 1370.59
15.6377 1411.53
15.6460 1448.52
15.6528 1475.36
15.6595 1499.05
15.6663 1519.40
15.6730 1536.20
15.6798 1549.30
15.6865 1558.57
15.6933 1563.94
15.7000 1565.34
15.7090 1561.02
15.7180 1549.73
15.7270 1531.64
15.7360 1507.07
15.7450 1476.43
15.7540 1440.21
15.7630 1399.01
15.7720 1353.44
15.7810 1304.18
15.7900 1251.94
15.8038 1167.50
15.8176 1080.14
15.8315 992.140
15.8453 905.565
15.8566 836.911
15.8679 771.070
15.8792 708.539
15.8904 649.714
15.9017 594.846
15.9130 544.053
15.9243 497.345
15.9300 475.481
15.9356 454.638
15.9413 434.723
15.9469 415.780
15.9525 397.716
15.9582 380.566
15.9638 364.237
15.9695 348.755
15.9751 334.034
15.9808 320.090
15.9864 306.841
15.9921 294.301
15.9977 282.393
16.0033 271.124
16.0090 260.425
16.0146 250.301
16.0203 240.704
16.0259 231.604
16.0372 214.775
16.0485 199.622
16.0598 185.958
16.0711 173.614
16.0824 162.439
16.0937 152.300
16.1049 143.079
16.1162 134.674
16.1270 127.326
16.1378 120.569
16.1486 114.342
16.1593 108.597
16.1701 103.275
16.1809 98.3410
16.1917 93.7574
16.2025 89.4954
16.2132 85.5182
16.2240 81.8040
16.2348 78.3300
16.2456 75.0784
16.2563 72.0250
16.2671 69.1589
16.2779 66.4601
16.2887 63.9204
16.3000 61.4106
16.3113 59.0494
16.3225 56.8231
16.3338 54.7216
16.3451 52.7356
16.3564 50.8567
16.3790 47.3905
16.4016 44.2696
16.4242 41.4492
16.4467 38.8919
16.4693 36.5656
16.4847 35.0975
16.5001 33.7176
16.5155 32.4171
16.5309 31.1917
16.5463 30.0342
16.5617 28.9410
16.5925 26.9265
16.6233 25.1161
16.6541 23.4828
16.6848 22.0041
16.7156 20.6609
16.7382 19.7526
16.7608 18.9029
16.7834 18.1071
16.8060 17.3605
16.8285 16.6592
16.8511 15.9997
16.8737 15.3787
16.8963 14.7933
16.9189 14.2408
16.9414 13.7188
16.9866 12.7575
17.0318 11.8942
17.0769 11.1160
17.1221 10.4121
17.1672 9.77320
17.2124 9.19168
17.2576 8.66085
17.3027 8.17501
17.3479 7.72926
17.3930 7.31939
17.4382 6.94171
17.4793 6.62350
17.5203 6.32703
17.5614 6.05015
17.6024 5.79123
17.6435 5.54860
17.6845 5.32105
17.7256 5.10730
17.7666 4.90637
17.8077 4.71720
17.8487 4.53898
17.8898 4.37082
17.9309 4.21204
18.0130 3.91984
18.0951 3.65766
18.1402 3.52480
18.1854 3.39924
18.2757 3.16796
18.3660 2.96019
18.4564 2.77286
18.5467 2.60340
18.6370 2.44961
18.7273 2.30963
18.8176 2.18188
18.8833 2.09586
18.9490 2.01511
19.0147 1.93922
19.0804 1.86786
19.1461 1.80071
19.2118 1.73745
19.3431 1.62120
19.4745 1.51688
19.6059 1.42312
19.7373 1.33860
19.8686 1.26219
20.0000 1.19295
20.1067 1.14136
20.2134 1.09346
20.3202 1.04893
20.4269 1.00750
20.5336 0.968898
20.6403 0.932876
20.7470 0.899218
20.8537 0.867729
20.9604 0.838232
21.0671 0.810576
21.2806 0.760224
21.4940 0.715691
21.7074 0.676183
21.9208 0.641036
22.1343 0.609714
22.3477 0.581774
22.5611 0.556863
22.7746 0.534705
22.9880 0.515114
23.2014 0.498005
23.4148 0.483448
23.6477 0.470869
23.7641 0.466158
23.8805 0.462795
23.9581 0.461534
24.0357 0.461316
24.1060 0.462272
24.1764 0.464657
24.2467 0.468960
24.3170 0.475955
24.3522 0.480835
24.3874 0.486931
24.4225 0.494554
24.4577 0.504126
24.4929 0.516242
24.5280 0.531740
24.5456 0.541122
24.5632 0.551841
24.5808 0.564148
24.5984 0.578338
24.6214 0.600398
24.6329 0.613181
24.6445 0.627326
24.6560 0.642999
24.6675 0.660384
24.6790 0.679684
24.6905 0.701120
24.7021 0.724931
24.7136 0.751370
24.7251 0.780706
24.7366 0.813213
24.7481 0.849170
24.7597 0.888852
24.7712 0.932521
24.7827 0.980416
24.7960 1.04142
24.8094 1.10859
24.8227 1.18205
24.8361 1.26175
24.8494 1.34748
24.8627 1.43882
24.8761 1.53511
24.8894 1.63537
24.9209 1.88149
24.9367 2.00430
24.9525 2.12294
24.9706 2.25024
24.9888 2.36247
24.9979 2.41141
25.0070 2.45474
25.0161 2.49205
25.0251 2.52282
25.0339 2.54591
25.0426 2.56239
25.0513 2.57209
25.0600 2.57489
25.0695 2.57011
25.0789 2.55725
25.0884 2.53650
25.0978 2.50815
25.1072 2.47252
25.1167 2.43015
25.1261 2.38148
25.1356 2.32723
25.1508 2.22927
25.1661 2.12124
25.1814 2.00617
25.1966 1.88704
25.2293 1.63065
25.2457 1.50746
25.2620 1.39062
25.2770 1.29023
25.2920 1.19721
25.3070 1.11189
25.3220 1.03441
25.3370 0.964626
25.3520 0.902238
25.3670 0.846796
25.3820 0.797763
25.3949 0.760115
25.4079 0.726427
25.4208 0.696317
25.4338 0.669438
25.4467 0.645400
25.4596 0.623919
25.4726 0.604669
25.4855 0.587413
25.4985 0.571886
25.5114 0.557894
25.5244 0.545248
25.5373 0.533796
25.5632 0.513885
25.5891 0.497232
25.6082 0.486631
25.6273 0.477200
25.6654 0.461170
25.7036 0.448078
25.7417 0.437194
25.7799 0.428010
25.8181 0.420157
25.8562 0.413366
25.8944 0.407431
25.9707 0.397535
26.0470 0.389599
26.1233 0.383085
26.1996 0.377639
26.3305 0.370053
26.4613 0.363993
26.5921 0.359040
26.7230 0.354928
26.9846 0.348625
27.2463 0.343910
27.5079 0.340455
27.7696 0.338017
28.0312 0.336436
28.2929 0.335630
28.7726 0.335987
29.2523 0.338525
29.7320 0.343197
30.2117 0.350047
30.6914 0.359164
31.1711 0.370775
31.6508 0.385155
31.8907 0.393502
32.1305 0.402693
32.4576 0.416752
32.7847 0.432769
33.1117 0.451036
33.4388 0.471881
33.7659 0.495706
33.9294 0.509083
34.0929 0.523540
34.2565 0.539228
34.4200 0.556345
34.5835 0.575162
34.7471 0.596060
34.8670 0.613017
34.9869 0.631672
35.1069 0.652474
35.2268 0.676198
35.3467 0.704046
35.4067 0.720069
35.4666 0.737948
35.5266 0.758211
35.5866 0.781610
35.6465 0.809276
35.6765 0.825219
35.7065 0.842956
35.7392 0.864823
35.7719 0.889986
35.8046 0.919390
35.8373 0.954331
35.8659 0.990879
35.8802 1.01176
35.8945 1.03472
35.9089 1.06003
35.9232 1.08803
35.9375 1.11910
35.9518 1.15365
35.9661 1.19217
35.9804 1.23515
35.9947 1.28317
36.0090 1.33683
36.0233 1.39676
36.0376 1.46363
36.0520 1.53809
36.0663 1.62078
36.0813 1.71690
36.0962 1.82333
36.1112 1.94055
36.1262 2.06888
36.1412 2.20838
36.1562 2.35888
36.1712 2.51984
36.1862 2.69041
36.2066 2.93622
36.2271 3.19291
36.2680 3.71466
36.2831 3.90157
36.2983 4.07947
36.3135 4.24478
36.3286 4.39400
36.3475 4.55232
36.3570 4.61844
36.3664 4.67493
36.3759 4.72141
36.3853 4.75735
36.3948 4.78249
36.4042 4.79656
36.4100 4.79967
36.4195 4.79570
36.4289 4.78060
36.4384 4.75455
36.4478 4.71788
36.4572 4.67089
36.4667 4.61416
36.4856 4.47361
36.5061 4.28581
36.5265 4.06918
36.5470 3.83226
36.5675 3.58373
36.6119 3.04335
36.6340 2.78838
36.6562 2.55158
36.6753 2.36454
36.6945 2.19511
36.7041 2.11712
36.7136 2.04373
36.7232 1.97472
36.7328 1.91014
36.7424 1.84974
36.7519 1.79352
36.7615 1.74119
36.7711 1.69270
36.7807 1.64774
36.7902 1.60624
36.8094 1.53265
36.8255 1.47948
36.8457 1.42289
36.8658 1.37579
36.8860 1.33671
36.9061 1.30437
36.9263 1.27764
36.9464 1.25562
36.9666 1.23750
36.9868 1.22266
37.0271 1.20077
37.0674 1.18680
37.1077 1.17864
37.1480 1.17487
37.2004 1.17497
37.2528 1.17945
37.3052 1.18737
37.3576 1.19812
37.4624 1.22656
37.5673 1.26273
37.6721 1.30574
37.7769 1.35558
37.8817 1.41331
37.9341 1.44586
37.9865 1.48154
38.0389 1.52127
38.0913 1.56651
38.1437 1.61975
38.1699 1.65057
38.1961 1.68508
38.2223 1.72416
38.2485 1.76879
38.2747 1.82013
38.3009 1.87938
38.3272 1.94773
38.3534 2.02610
38.3796 2.11511
38.4058 2.21474
38.4299 2.31546
38.4541 2.42312
38.5025 2.64965
38.5464 2.84915
38.5683 2.93885
38.5903 3.01768
38.6135 3.08638
38.6397 3.14228
38.6527 3.16101
38.6658 3.17340
38.6862 3.18012
38.7065 3.17212
38.7298 3.14653
38.7481 3.11554
38.7665 3.07679
38.8104 2.96363
38.8543 2.84134
38.8982 2.73068
38.9201 2.68420
38.9421 2.64495
38.9691 2.60715
39.0028 2.57602
39.0366 2.56149
39.0703 2.56133
39.1041 2.57313
39.1378 2.59458
39.1716 2.62378
39.2391 2.69970
39.3066 2.79305
39.3741 2.90000
39.4417 3.01899
39.5092 3.14962
39.5834 3.30707
39.6577 3.47973
39.7320 3.66896
39.8062 3.87637
39.8805 4.10409
39.9548 4.35453
40.0290 4.63069
40.1033 4.93601
40.1776 5.27471
40.2518 5.65168
40.2890 5.85640
40.3261 6.07297
40.3632 6.30238
40.4003 6.54566
40.4375 6.80403
40.4746 7.07861
40.5117 7.37086
40.5489 7.68234
40.5860 8.01486
40.6231 8.37017
40.6603 8.75050
40.6974 9.15827
40.7447 9.72132
40.7919 10.3398
40.8392 11.0213
40.8864 11.7749
40.9337 12.6115
40.9810 13.5438
41.0046 14.0505
41.0282 14.5873
41.0519 15.1564
41.0755 15.7607
41.1126 16.7888
41.1498 17.9242
41.1869 19.1829
41.2240 20.5841
41.2426 21.3452
41.2612 22.1509
41.2797 23.0047
41.2983 23.9103
41.3169 24.8729
41.3354 25.8967
41.3540 26.9881
41.3725 28.1523
41.3928 29.5150
41.4131 30.9830
41.4333 32.5694
41.4536 34.2861
41.4806 36.8075
41.4941 38.1791
41.5076 39.6335
41.5211 41.1788
41.5346 42.8209
41.5481 44.5700
41.5616 46.4360
41.5751 48.4319
41.5886 50.5677
41.6021 52.8593
41.6156 55.3233
41.6291 57.9806
41.6426 60.8487
41.6561 63.9541
41.6696 67.3249
41.6789 69.8151
41.6882 72.4548
41.6975 75.2625
41.7067 78.2462
41.7160 81.4277
41.7253 84.8170
41.7346 88.4358
41.7439 92.3040
41.7532 96.4482
41.7624 100.883
41.7717 105.639
41.7810 110.744
41.7903 116.234
41.7996 122.130
41.8089 128.473
41.8181 135.299
41.8245 140.253
41.8308 145.464
41.8371 150.945
41.8435 156.711
41.8498 162.777
41.8561 169.157
41.8624 175.867
41.8688 182.924
41.8751 190.344
41.8814 198.142
41.8878 206.337
41.8941 214.945
41.9004 223.984
41.9068 233.469
41.9131 243.419
41.9194 253.834
41.9287 270.048
41.9380 287.366
41.9473 305.852
41.9565 325.550
41.9658 346.523
41.9751 368.758
41.9844 392.304
41.9937 417.179
42.0030 443.421
42.0122 470.971
42.0215 499.875
42.0308 530.045
42.0401 561.504
42.0494 594.131
42.0587 627.887
42.0679 662.685
42.0772 698.462
42.0865 735.018
42.1051 810.022
42.1236 886.483
42.1422 962.790
42.1625 1043.93
42.1827 1120.42
42.1937 1159.12
42.2047 1195.31
42.2157 1228.67
42.2266 1258.78
42.2436 1298.15
42.2605 1328.04
42.2774 1347.62
42.2859 1353.36
42.2944 1356.34
42.3000 1356.79
42.3113 1353.97
42.3205 1348.06
42.3296 1338.97
42.3388 1326.76
42.3480 1311.54
42.3572 1293.43
42.3663 1272.58
42.3755 1249.15
42.3847 1223.34
42.3973 1184.30
42.4099 1141.66
42.4225 1096.01
42.4351 1047.94
42.4597 949.312
42.4844 848.065
42.5057 761.422
42.5269 677.759
42.5376 637.577
42.5482 598.721
42.5589 561.327
42.5695 525.533
42.5818 486.110
42.5941 448.978
42.6064 414.179
42.6188 381.744
42.6311 351.593
42.6434 323.702
42.6557 297.994
42.6680 274.395
42.6803 252.759
42.6927 232.992
42.7050 214.971
42.7173 198.586
42.7296 183.685
42.7419 170.161
