Cd-108(n,tot) ENDFB-8.0
Energy(eV) XS(b)
1.00000E-05 64.3803
1.03125E-05 63.4051
1.06250E-05 62.4734
1.09375E-05 61.5820
1.12500E-05 60.7281
1.15625E-05 59.9091
1.18750E-05 59.1228
1.21875E-05 58.3671
1.25000E-05 57.6399
1.28125E-05 56.9396
1.31250E-05 56.2645
1.34375E-05 55.6132
1.37500E-05 54.9843
1.43750E-05 53.7889
1.50000E-05 52.6692
1.56250E-05 51.6176
1.62500E-05 50.6275
1.68750E-05 49.6932
1.75000E-05 48.8097
1.81250E-05 47.9724
1.87500E-05 47.1775
1.93750E-05 46.4216
2.00000E-05 45.7016
2.09375E-05 44.6829
2.18750E-05 43.7308
2.28125E-05 42.8383
2.37500E-05 41.9995
2.46875E-05 41.2092
2.56250E-05 40.4630
2.65625E-05 39.7568
2.75000E-05 39.0874
2.84375E-05 38.4515
2.93750E-05 37.8465
3.03125E-05 37.2701
3.12500E-05 36.7199
3.21875E-05 36.1942
3.31250E-05 35.6911
3.40625E-05 35.2091
3.50000E-05 34.7467
3.59375E-05 34.3028
3.68750E-05 33.8760
3.78125E-05 33.4653
3.87500E-05 33.0697
3.96875E-05 32.6884
4.06250E-05 32.3205
4.25000E-05 31.6219
4.43750E-05 30.9685
4.62500E-05 30.3557
4.81250E-05 29.7794
5.00000E-05 29.2362
5.15625E-05 28.8067
5.31250E-05 28.3964
5.46875E-05 28.0041
5.62500E-05 27.6285
5.78125E-05 27.2683
5.93750E-05 26.9227
6.09375E-05 26.5907
6.25000E-05 26.2713
6.40625E-05 25.9639
6.56250E-05 25.6677
6.71875E-05 25.3820
6.87500E-05 25.1063
7.18750E-05 24.5825
7.50000E-05 24.0923
7.81250E-05 23.6324
8.12500E-05 23.1996
8.43750E-05 22.7916
8.75000E-05 22.4060
9.06250E-05 22.0410
9.37500E-05 21.6947
9.68750E-05 21.3656
0.000100000 21.0524
0.000103125 20.7538
0.000106250 20.4688
0.000109375 20.1964
0.000112500 19.9356
0.000115625 19.6858
0.000118750 19.4461
0.000121875 19.2159
0.000125000 18.9947
0.000128125 18.7817
0.000131250 18.5766
0.000134375 18.3789
0.000137500 18.1882
0.000143750 17.8261
0.000150000 17.4874
0.000156250 17.1699
0.000162500 16.8714
0.000168750 16.5901
0.000175000 16.3245
0.000181250 16.0733
0.000187500 15.8351
0.000193750 15.6089
0.000200000 15.3937
0.000209375 15.0898
0.000218750 14.8064
0.000228125 14.5413
0.000237500 14.2926
0.000246875 14.0588
0.000256250 13.8384
0.000265625 13.6302
0.000275000 13.4332
0.000284375 13.2465
0.000293750 13.0691
0.000303125 12.9004
0.000312500 12.7396
0.000321875 12.5862
0.000331250 12.4397
0.000340625 12.2996
0.000350000 12.1653
0.000359375 12.0366
0.000368750 11.9131
0.000378125 11.7943
0.000387500 11.6802
0.000396875 11.5703
0.000406250 11.4644
0.000425000 11.2637
0.000443750 11.0764
0.000462500 10.9013
0.000481250 10.7369
0.000500000 10.5824
0.000515625 10.4604
0.000531250 10.3441
0.000546875 10.2331
0.000562500 10.1270
0.000578125 10.0254
0.000593750 9.92804
0.000609375 9.83466
0.000625000 9.74498
0.000640625 9.65876
0.000656250 9.57581
0.000671875 9.49590
0.000687500 9.41888
0.000718750 9.27282
0.000750000 9.13643
0.000781250 9.00872
0.000812500 8.88882
0.000843750 8.77596
0.000875000 8.66950
0.000906250 8.56887
0.000937500 8.47355
0.000968750 8.38311
0.00100000 8.29713
0.00103125 8.21529
0.00106250 8.13724
0.00109375 8.06273
0.00112500 7.99148
0.00115625 7.92327
0.00118750 7.85789
0.00121875 7.79516
0.00125000 7.73490
0.00128125 7.67696
0.00131250 7.62118
0.00134375 7.56745
0.00137500 7.51564
0.00143750 7.41735
0.00150000 7.32552
0.00156250 7.23948
0.00162500 7.15865
0.00168750 7.08254
0.00175000 7.01069
0.00181250 6.94274
0.00187500 6.87834
0.00193750 6.81720
0.00200000 6.75906
0.00209375 6.67695
0.00218750 6.60036
0.00228125 6.52870
0.00237500 6.46148
0.00246875 6.39824
0.00256250 6.33863
0.00265625 6.28230
0.00275000 6.22897
0.00284375 6.17838
0.00293750 6.13031
0.00303125 6.08455
0.00312500 6.04093
0.00321875 5.99929
0.00331250 5.95948
0.00340625 5.92137
0.00350000 5.88485
0.00359375 5.84980
0.00368750 5.81614
0.00378125 5.78377
0.00387500 5.75262
0.00396875 5.72260
0.00406250 5.69366
0.00425000 5.63875
0.00443750 5.58745
0.00462500 5.53938
0.00481250 5.49421
0.00500000 5.45168
0.00515625 5.41806
0.00531250 5.38596
0.00546875 5.35529
0.00562500 5.32593
0.00578125 5.29780
0.00593750 5.27081
0.00609375 5.24489
0.00625000 5.21997
0.00640625 5.19598
0.00656250 5.17288
0.00671875 5.15060
0.00687500 5.12910
0.00718750 5.08827
0.00750000 5.05006
0.00781250 5.01422
0.00812500 4.98050
0.00843750 4.94871
0.00875000 4.91867
0.00906250 4.89022
0.00937500 4.86323
0.00968750 4.83758
0.0100000 4.81317
0.0103125 4.78989
0.0106250 4.76766
0.0109375 4.74641
0.0112500 4.72607
0.0115625 4.70657
0.0118750 4.68785
0.0121875 4.66987
0.0125000 4.65259
0.0128125 4.63594
0.0131250 4.61991
0.0134375 4.60444
0.0137500 4.58952
0.0143750 4.56116
0.0150000 4.53461
0.0156250 4.50969
0.0162500 4.48625
0.0168750 4.46413
0.0175000 4.44322
0.0181250 4.42342
0.0187500 4.40463
0.0193750 4.38676
0.0200000 4.36975
0.0206625 4.35258
0.0213250 4.33622
0.0219875 4.32061
0.0226500 4.30571
0.0233125 4.29145
0.0239750 4.27779
0.0246375 4.26469
0.0253000 4.25211
0.0264578 4.23129
0.0276156 4.21181
0.0287734 4.19353
0.0299313 4.17633
0.0310891 4.16010
0.0322469 4.14477
0.0334047 4.13025
0.0345625 4.11647
0.0355274 4.10551
0.0364922 4.09498
0.0374570 4.08487
0.0384219 4.07514
0.0393867 4.06578
0.0403516 4.05675
0.0413164 4.04805
0.0422813 4.03964
0.0442109 4.02367
0.0461406 4.00872
0.0480703 3.99468
0.0500000 3.98146
0.0515625 3.97131
0.0531250 3.96162
0.0546875 3.95235
0.0562500 3.94346
0.0578125 3.93494
0.0593750 3.92676
0.0609375 3.91890
0.0625000 3.91134
0.0640625 3.90406
0.0656250 3.89704
0.0671875 3.89027
0.0687500 3.88374
0.0718750 3.87131
0.0750000 3.85966
0.0781250 3.84872
0.0812500 3.83842
0.0843750 3.82869
0.0875000 3.81949
0.0906250 3.81076
0.0937500 3.80248
0.0968750 3.79461
0.100000 3.78710
0.103125 3.77994
0.106250 3.77310
0.109375 3.76655
0.112500 3.76027
0.115625 3.75425
0.118750 3.74847
0.121875 3.74292
0.125000 3.73757
0.128125 3.73242
0.131250 3.72746
0.134375 3.72267
0.137500 3.71805
0.143750 3.70925
0.150000 3.70100
0.156250 3.69325
0.162500 3.68594
0.168750 3.67904
0.175000 3.67251
0.181250 3.66632
0.187500 3.66043
0.193750 3.65484
0.200000 3.64950
0.204688 3.64566
0.209375 3.64196
0.218750 3.63489
0.228125 3.62826
0.237500 3.62202
0.246875 3.61613
0.256250 3.61056
0.265625 3.60529
0.275000 3.60028
0.284375 3.59552
0.293750 3.59099
0.303125 3.58666
0.312500 3.58253
0.321875 3.57857
0.331250 3.57478
0.340625 3.57115
0.350000 3.56766
0.359375 3.56430
0.368750 3.56107
0.378125 3.55796
0.387500 3.55496
0.396875 3.55206
0.406250 3.54927
0.425000 3.54395
0.443750 3.53896
0.462500 3.53426
0.500000 3.52566
0.531250 3.51917
0.562500 3.51321
0.593750 3.50770
0.625000 3.50259
0.687500 3.49340
0.750000 3.48533
0.812500 3.47816
0.875000 3.47175
0.937500 3.46595
1.00000 3.46065
1.06250 3.45579
1.12500 3.45132
1.18750 3.44718
1.25000 3.44333
1.37500 3.43636
1.50000 3.43021
1.62500 3.42471
1.75000 3.41976
1.87500 3.41526
2.00000 3.41113
2.18750 3.40553
2.37500 3.40053
2.56250 3.39600
2.75000 3.39189
2.93750 3.38811
3.12500 3.38462
3.31250 3.38138
3.50000 3.37836
3.68750 3.37552
3.87500 3.37286
4.06250 3.37034
4.25000 3.36796
4.62500 3.36354
5.00000 3.35951
5.31250 3.35641
5.62500 3.35350
5.93750 3.35075
6.25000 3.34816
6.56250 3.34570
6.87500 3.34335
7.18750 3.34111
7.50000 3.33897
8.12500 3.33492
8.75000 3.33115
9.37500 3.32762
10.0000 3.32427
10.6250 3.32109
11.2500 3.31806
11.8750 3.31514
12.5000 3.31233
13.1250 3.30962
13.7500 3.30698
14.3750 3.30442
15.0000 3.30192
16.2500 3.29708
17.5000 3.29242
18.7500 3.28791
20.0000 3.28351
20.9375 3.28028
21.8750 3.27709
23.7500 3.27082
25.6250 3.26467
27.5000 3.25860
29.3750 3.25260
31.2500 3.24664
33.1250 3.24073
35.0000 3.23485
36.8750 3.22903
38.2813 3.22470
39.6875 3.22044
40.3906 3.21834
41.0938 3.21627
41.7969 3.21423
42.5000 3.21224
43.1152 3.21056
43.7305 3.20892
44.3457 3.20737
44.9609 3.20591
45.5762 3.20459
45.8838 3.20398
46.1914 3.20343
46.4990 3.20294
46.8067 3.20251
47.1143 3.20216
47.4219 3.20192
47.7149 3.20179
48.0078 3.20179
48.3008 3.20194
48.5938 3.20228
48.7403 3.20253
48.8867 3.20285
49.0332 3.20324
49.1797 3.20370
49.3262 3.20426
49.4727 3.20491
49.6192 3.20567
49.7656 3.20656
49.8828 3.20739
50.0000 3.20832
50.1618 3.20980
50.3236 3.21154
50.4854 3.21359
50.5664 3.21476
50.6473 3.21602
50.7282 3.21739
50.8091 3.21889
50.8900 3.22051
50.9709 3.22229
51.0518 3.22422
51.1327 3.22633
51.2136 3.22865
51.2945 3.23118
51.3835 3.23427
51.4725 3.23769
51.5615 3.24151
51.6505 3.24578
51.7395 3.25057
51.8285 3.25596
51.9175 3.26204
51.9620 3.26538
52.0065 3.26893
52.0834 3.27565
52.1602 3.28320
52.1986 3.28732
52.2371 3.29171
52.2755 3.29638
52.3139 3.30135
52.3524 3.30665
52.3908 3.31232
52.4292 3.31838
52.4677 3.32487
52.5061 3.33184
52.5445 3.33932
52.5829 3.34738
52.6214 3.35608
52.6659 3.36703
52.7104 3.37905
52.7549 3.39228
52.7994 3.40687
52.8439 3.42305
52.8884 3.44102
52.9329 3.46109
52.9551 3.47201
52.9774 3.48358
52.9996 3.49586
53.0219 3.50891
53.0441 3.52280
53.0664 3.53760
53.0886 3.55339
53.1109 3.57027
53.1331 3.58834
53.1554 3.60772
53.1776 3.62854
53.1999 3.65096
53.2221 3.67515
53.2444 3.70132
53.2666 3.72969
53.2889 3.76053
53.3111 3.79417
53.3333 3.83096
53.3556 3.87138
53.3778 3.91595
53.4001 3.96532
53.4223 4.02029
53.4335 4.05019
53.4446 4.08186
53.4557 4.11551
53.4668 4.15128
53.4780 4.18943
53.4891 4.23013
53.5002 4.27373
53.5113 4.32044
53.5225 4.37070
53.5336 4.42480
53.5447 4.48330
53.5558 4.54658
53.5670 4.61533
53.5781 4.69008
53.5892 4.77170
53.6003 4.86086
53.6115 4.95867
53.6226 5.06600
53.6337 5.18423
53.6448 5.31446
53.6560 5.45841
53.6671 5.61743
53.6782 5.79346
53.6893 5.98848
53.6974 6.14371
53.7055 6.31083
53.7136 6.49098
53.7217 6.68516
53.7298 6.89441
53.7379 7.11983
53.7460 7.36256
53.7541 7.62379
53.7622 7.90474
53.7702 8.20666
53.7783 8.53085
53.7864 8.87859
53.7945 9.25120
53.8026 9.64997
53.8107 10.0762
53.8188 10.5312
53.8299 11.2063
53.8410 11.9405
53.8522 12.7377
53.8633 13.5989
53.8744 14.5276
53.8855 15.5235
53.8967 16.5890
53.9078 17.7222
53.9189 18.9243
53.9300 20.1913
53.9412 21.5226
53.9523 22.9121
53.9634 24.3571
53.9745 25.8490
53.9968 28.9470
54.0413 35.3307
54.0635 38.4242
54.0858 41.3084
54.0969 42.6390
54.1080 43.8751
54.1192 45.0061
54.1303 46.0178
54.1423 46.9670
54.1543 47.7518
54.1664 48.3624
54.1784 48.7909
54.1892 49.0154
54.2000 49.0861
54.2072 49.0471
54.2189 48.8379
54.2306 48.4503
54.2423 47.8896
54.2540 47.1629
54.2642 46.4026
54.2744 45.5308
54.2897 44.0225
54.3051 42.3099
54.3170 40.8680
54.3288 39.3423
54.3525 36.1016
54.4140 27.3629
54.4293 25.2649
54.4447 23.2516
54.4600 21.3374
54.4754 19.5378
54.4887 18.0804
54.5019 16.7192
54.5152 15.4546
54.5218 14.8587
54.5284 14.2868
54.5351 13.7388
54.5417 13.2143
54.5483 12.7130
54.5550 12.2345
54.5616 11.7782
54.5682 11.3437
54.5748 10.9303
54.5815 10.5374
54.5892 10.1072
54.5968 9.70266
54.6045 9.32270
54.6122 8.96670
54.6199 8.63264
54.6275 8.31987
54.6352 8.02732
54.6429 7.75424
54.6506 7.49884
54.6583 7.26046
54.6659 7.03808
54.6736 6.83098
54.6813 6.63767
54.6890 6.45752
54.6966 6.28967
54.7043 6.13347
54.7141 5.94965
54.7239 5.78177
54.7336 5.62822
54.7434 5.48769
54.7532 5.35884
54.7630 5.24084
54.7727 5.13252
54.7825 5.03296
54.7923 4.94123
54.8020 4.85676
54.8118 4.77877
54.8216 4.70662
54.8314 4.63977
54.8411 4.57770
54.8509 4.51997
54.8607 4.46617
54.8760 4.38869
54.8914 4.31885
54.9067 4.25555
54.9221 4.19799
54.9374 4.14538
54.9528 4.09717
54.9682 4.05278
54.9835 4.01183
54.9989 3.97388
55.0142 3.93866
55.0296 3.90586
55.0449 3.87527
55.0603 3.84664
55.0756 3.81984
55.0910 3.79466
55.1063 3.77100
55.1217 3.74870
55.1371 3.72767
55.1678 3.68903
55.1985 3.65438
55.2292 3.62316
55.2599 3.59493
55.2906 3.56929
55.3213 3.54593
55.3520 3.52458
55.3814 3.50586
55.4107 3.48859
55.4400 3.47261
55.4693 3.45780
55.4986 3.44403
55.5279 3.43123
55.5572 3.41928
55.5866 3.40812
55.6159 3.39768
55.6452 3.38789
55.6745 3.37870
55.7038 3.37006
55.7331 3.36193
55.7624 3.35427
55.8211 3.34020
55.8518 3.33343
55.8825 3.32704
55.9439 3.31528
56.0053 3.30471
56.0668 3.29517
56.1282 3.28653
56.1896 3.27868
56.2510 3.27153
56.3124 3.26498
56.3683 3.25950
56.4241 3.25442
56.4800 3.24970
56.5358 3.24531
56.5916 3.24120
56.6475 3.23737
56.7033 3.23377
56.7592 3.23040
56.8150 3.22723
56.8708 3.22425
56.9267 3.22144
56.9825 3.21878
57.0942 3.21389
57.2059 3.20950
57.2784 3.20687
57.3510 3.20441
57.4236 3.20209
57.4962 3.19991
57.6414 3.19591
57.7866 3.19232
57.9317 3.18909
58.0769 3.18616
58.2221 3.18348
58.3673 3.18102
58.4901 3.17908
58.6130 3.17727
58.7358 3.17556
58.8587 3.17396
58.9815 3.17244
59.1043 3.17100
59.3500 3.16832
59.5957 3.16588
59.8414 3.16363
60.0871 3.16155
60.3328 3.15961
60.6231 3.15746
60.9135 3.15543
61.2039 3.15352
61.4942 3.15170
61.7846 3.14996
62.0749 3.14829
62.3653 3.14668
62.6556 3.14511
63.2364 3.14211
63.8171 3.13924
64.3978 3.13647
64.9785 3.13376
65.8719 3.12972
66.7653 3.12577
67.6587 3.12188
68.5521 3.11804
69.6242 3.11346
70.6963 3.10889
71.7684 3.10433
72.8405 3.09976
74.9846 3.09056
77.1288 3.08128
79.9877 3.06867
82.8466 3.05576
85.7055 3.04253
88.5644 3.02894
91.4233 3.01496
94.2822 3.00056
97.1411 2.98572
100.000 2.97041
103.125 2.95311
106.250 2.93517
109.375 2.91656
112.500 2.89722
115.625 2.87712
118.750 2.85620
121.875 2.83440
125.000 2.81166
128.125 2.78791
131.250 2.76308
134.375 2.73708
137.500 2.70983
140.625 2.68123
143.750 2.65116
146.875 2.61949
150.000 2.58610
152.930 2.55308
155.859 2.51824
158.789 2.48141
161.719 2.44245
163.184 2.42229
164.649 2.40136
166.113 2.37979
167.578 2.35755
169.043 2.33460
170.508 2.31090
171.973 2.28642
173.438 2.26112
175.000 2.23317
177.149 2.19298
179.297 2.15072
181.445 2.10616
182.520 2.08293
183.594 2.05902
184.668 2.03452
185.742 2.00928
186.817 1.98323
187.891 1.95651
188.965 1.92900
190.039 1.90055
191.113 1.87131
192.188 1.84122
193.164 1.81292
194.141 1.78392
195.117 1.75412
196.094 1.72350
197.070 1.69191
198.047 1.65942
199.024 1.62600
200.000 1.59162
201.107 1.55147
202.215 1.51009
203.322 1.46748
204.429 1.42365
204.983 1.40130
205.537 1.37867
206.090 1.35579
206.644 1.33269
207.198 1.30932
207.751 1.28576
208.305 1.26202
208.858 1.23817
209.575 1.20718
210.291 1.17619
211.008 1.14536
211.724 1.11489
212.441 1.08504
213.157 1.05613
213.874 1.02859
214.590 1.00292
215.209 0.982766
215.828 0.965034
216.447 0.950385
217.065 0.939638
217.375 0.936037
217.684 0.933815
217.994 0.933136
218.303 0.934168
218.612 0.937067
218.922 0.942084
219.231 0.949607
219.541 0.959950
219.752 0.968793
219.964 0.979197
220.176 0.991305
220.387 1.00528
220.599 1.02129
220.811 1.03951
220.917 1.04951
221.023 1.06012
221.128 1.07139
221.234 1.08333
221.373 1.10004
221.511 1.11803
221.649 1.13736
221.788 1.15814
221.926 1.18043
222.065 1.20434
222.134 1.21694
222.203 1.22997
222.272 1.24346
222.341 1.25742
222.403 1.27014
222.464 1.28326
222.525 1.29677
222.586 1.31067
222.610 1.31634
222.649 1.32549
222.688 1.33480
222.726 1.34429
222.765 1.35394
222.834 1.37168
222.903 1.39003
222.972 1.40900
223.042 1.42861
223.111 1.44887
223.180 1.46982
223.249 1.49146
223.318 1.51383
223.408 1.54391
223.498 1.57530
223.587 1.60805
223.677 1.64218
223.766 1.67783
223.856 1.71499
223.945 1.75380
224.035 1.79426
224.125 1.83652
224.214 1.88058
224.304 1.92660
224.393 1.97459
224.483 2.02473
224.572 2.07702
224.662 2.13167
224.751 2.18866
224.841 2.24825
224.931 2.31049
225.020 2.37550
225.110 2.44335
225.199 2.51433
225.289 2.58843
225.378 2.66598
225.468 2.74697
225.557 2.83177
225.647 2.92047
225.737 3.01329
225.826 3.11033
225.916 3.21203
226.005 3.31840
226.095 3.42996
226.184 3.54671
226.274 3.66923
226.364 3.79769
226.453 3.93243
226.543 4.07365
226.632 4.22205
226.722 4.37771
226.811 4.54141
226.901 4.71326
226.990 4.89414
227.080 5.08420
227.170 5.28445
227.259 5.49505
227.349 5.71717
227.438 5.95103
227.528 6.19793
227.617 6.45818
227.707 6.73328
227.796 7.02393
227.886 7.33122
227.976 7.65595
228.065 8.00010
228.155 8.36472
228.244 8.75131
228.334 9.16105
228.423 9.59664
228.513 10.0591
228.603 10.5516
228.692 11.0754
228.782 11.6343
228.871 12.2298
228.961 12.8666
229.050 13.5467
229.140 14.2754
229.229 15.0563
229.319 15.8943
229.409 16.7936
229.498 17.7623
229.588 18.8048
229.677 19.9310
229.767 21.1469
229.856 22.4647
229.946 23.8939
230.036 25.4470
230.125 27.1360
230.215 28.9808
230.304 30.9958
230.394 33.2068
230.439 34.3925
230.483 35.6334
230.528 36.9388
230.573 38.3100
230.618 39.7514
230.662 41.2641
230.707 42.8602
230.752 44.5418
230.797 46.3151
230.841 48.1824
230.886 50.1593
230.931 52.2496
230.976 54.4620
231.021 56.8005
231.065 59.2862
231.110 61.9254
231.155 64.7310
231.200 67.7101
231.234 70.1565
231.269 72.7208
231.304 75.4186
231.338 78.2593
231.373 81.2531
231.407 84.4112
231.442 87.7458
231.477 91.2706
231.511 95.0001
231.546 98.9508
231.580 103.141
231.615 107.589
231.650 112.319
231.684 117.355
231.719 122.723
231.753 128.455
231.798 136.472
231.843 145.242
231.888 154.864
231.933 165.454
231.977 177.150
232.022 190.116
232.045 197.134
232.067 204.545
232.089 212.379
232.112 220.631
232.134 229.412
232.156 238.723
232.179 248.609
232.201 259.117
232.224 270.299
232.246 282.210
232.268 294.912
232.291 308.410
232.313 322.897
232.336 338.395
232.358 354.989
232.380 372.772
232.403 391.846
232.425 412.317
232.448 434.304
232.470 457.820
232.489 479.701
232.509 502.877
232.528 527.684
232.547 553.963
232.567 582.092
232.586 611.886
232.605 643.595
232.625 677.330
232.644 713.397
232.663 751.540
232.683 792.270
232.702 835.285
232.721 881.143
232.741 929.484
232.760 980.644
232.779 1034.72
232.802 1101.27
232.824 1172.00
232.846 1247.03
232.869 1326.45
232.891 1410.30
232.914 1498.61
232.936 1591.36
232.958 1688.07
232.981 1789.49
233.003 1895.05
233.048 2117.73
233.093 2353.81
233.137 2599.52
233.227 3105.11
233.272 3353.68
233.317 3590.72
233.368 3840.82
233.394 3954.40
233.419 4058.19
233.445 4151.91
233.470 4233.84
233.496 4303.47
233.522 4360.03
233.561 4419.94
233.600 4446.26
233.616 4447.21
233.641 4437.05
233.667 4412.55
233.692 4374.02
233.718 4321.92
233.743 4256.89
233.769 4179.67
233.794 4091.14
233.820 3992.29
233.845 3885.49
233.870 3770.73
233.921 3521.87
233.971 3254.92
234.021 2978.84
234.073 2693.19
234.125 2414.46
234.177 2148.98
234.203 2022.73
234.229 1901.42
234.255 1785.37
234.281 1674.83
234.307 1569.95
234.333 1470.81
234.359 1377.40
234.385 1289.68
234.411 1207.52
234.437 1130.79
234.455 1081.29
234.473 1034.42
234.491 989.598
234.508 947.237
234.526 906.781
234.544 868.603
234.562 832.385
234.579 798.045
234.597 765.318
234.615 734.489
234.632 705.287
234.650 677.630
234.668 651.296
234.686 626.503
234.703 603.025
234.721 580.789
234.747 550.121
234.773 521.898
234.799 495.803
234.825 471.655
234.851 449.287
234.877 428.544
234.903 409.285
234.929 391.380
234.955 374.712
234.981 359.174
235.007 344.667
235.033 331.104
235.059 318.405
235.085 306.496
235.111 295.314
235.137 284.798
235.163 274.858
235.189 265.522
235.215 256.707
235.241 248.372
235.293 233.006
235.345 219.173
235.397 206.667
235.449 195.315
235.501 184.972
235.553 175.517
235.598 167.971
235.643 160.969
235.688 154.444
235.733 148.351
235.778 142.651
235.823 137.310
235.868 132.296
235.913 127.583
235.958 123.136
236.002 118.954
236.047 115.005
236.092 111.272
236.137 107.740
236.182 104.393
236.272 98.2044
236.324 94.8931
236.376 91.7730
236.428 88.8237
236.480 86.0324
236.532 83.3878
236.584 80.8793
236.688 76.2336
236.792 72.0249
236.896 68.2054
237.000 64.7239
237.104 61.5402
237.227 58.1131
237.350 55.0098
237.473 52.1874
237.596 49.6119
237.719 47.2525
237.842 45.0881
237.965 43.0951
238.087 41.2550
238.192 39.8041
238.296 38.4442
238.400 37.1664
238.504 35.9640
238.608 34.8310
238.712 33.7620
238.816 32.7521
238.920 31.7969
239.024 30.8914
239.128 30.0338
239.232 29.2199
239.336 28.4465
239.544 27.0107
239.752 25.7069
239.960 24.5182
240.168 23.4318
240.376 22.4348
240.584 21.5181
240.792 20.6721
241.000 19.8901
241.208 19.1653
241.416 18.4921
241.605 17.9205
241.794 17.3842
241.983 16.8798
242.172 16.4043
242.362 15.9552
242.551 15.5310
242.740 15.1297
242.929 14.7497
243.118 14.3891
243.307 14.0469
243.496 13.7217
243.685 13.4123
243.875 13.1175
244.064 12.8365
244.442 12.3120
244.650 12.0430
244.858 11.7867
245.274 11.3087
