Te-128(n,tot) ENDFB-8.0
Energy(eV) XS(b)
1.00000E-05 32.8051
1.03125E-05 32.3154
1.06250E-05 31.8476
1.09375E-05 31.4001
1.12500E-05 30.9716
1.15625E-05 30.5607
1.18750E-05 30.1662
1.21875E-05 29.7872
1.25000E-05 29.4226
1.28125E-05 29.0715
1.31250E-05 28.7332
1.34375E-05 28.4068
1.37500E-05 28.0918
1.43750E-05 27.4931
1.50000E-05 26.9326
1.56250E-05 26.4065
1.62500E-05 25.9113
1.68750E-05 25.4442
1.75000E-05 25.0027
1.81250E-05 24.5845
1.87500E-05 24.1877
1.93750E-05 23.8105
2.00000E-05 23.4513
2.09375E-05 22.9435
2.18750E-05 22.4692
2.28125E-05 22.0248
2.37500E-05 21.6075
2.46875E-05 21.2145
2.56250E-05 20.8437
2.65625E-05 20.4931
2.75000E-05 20.1609
2.84375E-05 19.8455
2.93750E-05 19.5457
3.03125E-05 19.2602
3.12500E-05 18.9879
3.21875E-05 18.7279
3.31250E-05 18.4792
3.40625E-05 18.2411
3.50000E-05 18.0129
3.59375E-05 17.7938
3.68750E-05 17.5834
3.78125E-05 17.3810
3.87500E-05 17.1863
3.96875E-05 16.9986
4.06250E-05 16.8177
4.25000E-05 16.4745
4.43750E-05 16.1539
4.62500E-05 15.8536
4.81250E-05 15.5715
5.00000E-05 15.3060
5.15625E-05 15.0963
5.31250E-05 14.8962
5.46875E-05 14.7050
5.62500E-05 14.5222
5.78125E-05 14.3471
5.93750E-05 14.1792
6.09375E-05 14.0181
6.25000E-05 13.8633
6.40625E-05 13.7145
6.56250E-05 13.5712
6.71875E-05 13.4331
6.87500E-05 13.3000
7.18750E-05 13.0475
7.50000E-05 12.8117
7.81250E-05 12.5909
8.12500E-05 12.3836
8.43750E-05 12.1885
8.75000E-05 12.0045
9.06250E-05 11.8306
9.37500E-05 11.6660
9.68750E-05 11.5099
0.000100000 11.3616
0.000103125 11.2205
0.000106250 11.0860
0.000109375 10.9578
0.000112500 10.8353
0.000115625 10.7181
0.000118750 10.6059
0.000121875 10.4983
0.000125000 10.3951
0.000128125 10.2960
0.000131250 10.2007
0.000134375 10.1090
0.000137500 10.0206
0.000143750 9.85341
0.000150000 9.69760
0.000156250 9.55201
0.000162500 9.41562
0.000168750 9.28756
0.000175000 9.16705
0.000181250 9.05341
0.000187500 8.94604
0.000193750 8.84443
0.000200000 8.74809
0.000209375 8.61257
0.000218750 8.48678
0.000228125 8.36966
0.000237500 8.26031
0.000246875 8.15795
0.000256250 8.06191
0.000265625 7.97160
0.000275000 7.88651
0.000284375 7.80618
0.000293750 7.73020
0.000303125 7.65823
0.000312500 7.58993
0.000321875 7.52503
0.000331250 7.46328
0.000340625 7.40443
0.000350000 7.34829
0.000359375 7.29465
0.000368750 7.24337
0.000378125 7.19426
0.000387500 7.14721
0.000396875 7.10207
0.000406250 7.05872
0.000425000 6.97700
0.000443750 6.90126
0.000462500 6.83085
0.000481250 6.76521
0.000500000 6.70386
0.000515625 6.65569
0.000531250 6.60999
0.000546875 6.56657
0.000562500 6.52525
0.000578125 6.48587
0.000593750 6.44830
0.000609375 6.41241
0.000625000 6.37808
0.000640625 6.34522
0.000656250 6.31372
0.000671875 6.28350
0.000687500 6.25448
0.000718750 6.19974
0.000750000 6.14899
0.000781250 6.10179
0.000812500 6.05776
0.000843750 6.01658
0.000875000 5.97796
0.000906250 5.94167
0.000937500 5.90749
0.000968750 5.87522
0.00100000 5.84471
0.00103125 5.81581
0.00106250 5.78838
0.00109375 5.76231
0.00112500 5.73750
0.00115625 5.71385
0.00118750 5.69128
0.00121875 5.66970
0.00125000 5.64906
0.00128125 5.62929
0.00131250 5.61033
0.00134375 5.59213
0.00137500 5.57464
0.00143750 5.54163
0.00150000 5.51099
0.00156250 5.48246
0.00162500 5.45582
0.00168750 5.43086
0.00175000 5.40743
0.00181250 5.38539
0.00187500 5.36459
0.00193750 5.34495
0.00200000 5.32634
0.00209375 5.30021
0.00218750 5.27599
0.00228125 5.25345
0.00237500 5.23243
0.00246875 5.21276
0.00256250 5.19430
0.00265625 5.17694
0.00275000 5.16059
0.00284375 5.14513
0.00293750 5.13051
0.00303125 5.11665
0.00312500 5.10349
0.00321875 5.09097
0.00331250 5.07904
0.00340625 5.06766
0.00350000 5.05679
0.00359375 5.04639
0.00368750 5.03643
0.00378125 5.02689
0.00387500 5.01772
0.00396875 5.00892
0.00406250 5.00046
0.00425000 4.98446
0.00443750 4.96959
0.00462500 4.95572
0.00481250 4.94274
0.00500000 4.93057
0.00515625 4.92099
0.00531250 4.91187
0.00546875 4.90318
0.00562500 4.89489
0.00578125 4.88697
0.00593750 4.87939
0.00609375 4.87213
0.00625000 4.86516
0.00640625 4.85848
0.00656250 4.85205
0.00671875 4.84587
0.00687500 4.83992
0.00718750 4.82866
0.00750000 4.81816
0.00781250 4.80835
0.00812500 4.79915
0.00843750 4.79051
0.00875000 4.78237
0.00906250 4.77469
0.00937500 4.76742
0.00968750 4.76054
0.0100000 4.75400
0.0103125 4.74779
0.0106250 4.74187
0.0109375 4.73622
0.0112500 4.73083
0.0115625 4.72567
0.0118750 4.72073
0.0121875 4.71599
0.0125000 4.71145
0.0128125 4.70708
0.0131250 4.70288
0.0134375 4.69884
0.0137500 4.69494
0.0143750 4.68756
0.0150000 4.68067
0.0156250 4.67423
0.0162500 4.66818
0.0168750 4.66249
0.0175000 4.65713
0.0181250 4.65206
0.0187500 4.64726
0.0193750 4.64270
0.0200000 4.63838
0.0206625 4.63402
0.0213250 4.62988
0.0219875 4.62593
0.0226500 4.62217
0.0233125 4.61858
0.0239750 4.61515
0.0246375 4.61186
0.0253000 4.60871
0.0264578 4.60350
0.0276156 4.59864
0.0287734 4.59409
0.0299313 4.58982
0.0310891 4.58580
0.0322469 4.58201
0.0334047 4.57843
0.0345625 4.57503
0.0355274 4.57234
0.0364922 4.56975
0.0374570 4.56727
0.0384219 4.56489
0.0393867 4.56260
0.0403516 4.56039
0.0413164 4.55826
0.0422813 4.55621
0.0442109 4.55233
0.0461406 4.54869
0.0480703 4.54529
0.0500000 4.54209
0.0515625 4.53964
0.0531250 4.53730
0.0546875 4.53506
0.0562500 4.53292
0.0578125 4.53087
0.0593750 4.52890
0.0609375 4.52702
0.0625000 4.52520
0.0640625 4.52346
0.0656250 4.52178
0.0671875 4.52016
0.0687500 4.51860
0.0718750 4.51563
0.0750000 4.51286
0.0781250 4.51025
0.0812500 4.50780
0.0843750 4.50550
0.0875000 4.50331
0.0906250 4.50125
0.0937500 4.49929
0.0968750 4.49743
0.100000 4.49566
0.103125 4.49397
0.106250 4.49235
0.109375 4.49081
0.112500 4.48933
0.115625 4.48792
0.118750 4.48656
0.121875 4.48525
0.125000 4.48400
0.128125 4.48279
0.131250 4.48163
0.134375 4.48050
0.137500 4.47942
0.143750 4.47736
0.150000 4.47543
0.156250 4.47361
0.162500 4.47191
0.168750 4.47029
0.175000 4.46877
0.181250 4.46732
0.187500 4.46595
0.193750 4.46465
0.200000 4.46340
0.209375 4.46164
0.218750 4.45999
0.228125 4.45844
0.237500 4.45699
0.246875 4.45561
0.256250 4.45431
0.265625 4.45308
0.275000 4.45191
0.284375 4.45080
0.293750 4.44974
0.303125 4.44873
0.312500 4.44776
0.321875 4.44683
0.331250 4.44594
0.340625 4.44509
0.350000 4.44427
0.359375 4.44348
0.368750 4.44272
0.378125 4.44198
0.387500 4.44128
0.396875 4.44059
0.406250 4.43993
0.425000 4.43867
0.443750 4.43748
0.462500 4.43637
0.500000 4.43431
0.531250 4.43275
0.562500 4.43131
0.593750 4.42997
0.625000 4.42872
0.687500 4.42646
0.750000 4.42444
0.812500 4.42263
0.875000 4.42098
0.937500 4.41947
1.00000 4.41807
1.06250 4.41677
1.12500 4.41556
1.18750 4.41442
1.25000 4.41334
1.37500 4.41134
1.50000 4.40952
1.62500 4.40784
1.75000 4.40627
1.87500 4.40481
2.00000 4.40342
2.18750 4.40147
2.37500 4.39965
2.56250 4.39792
2.75000 4.39629
2.93750 4.39472
3.12500 4.39322
3.31250 4.39176
3.50000 4.39036
3.68750 4.38899
3.87500 4.38766
4.25000 4.38509
4.62500 4.38262
5.00000 4.38023
5.31250 4.37830
5.62500 4.37641
5.93750 4.37456
6.25000 4.37274
6.87500 4.36919
7.50000 4.36574
8.12500 4.36238
8.75000 4.35909
9.37500 4.35587
10.0000 4.35270
10.6250 4.34959
11.2500 4.34652
11.8750 4.34350
12.5000 4.34052
13.1250 4.33757
13.7500 4.33466
15.0000 4.32894
16.2500 4.32334
17.5000 4.31786
18.7500 4.31248
20.0000 4.30719
20.9375 4.30329
21.8750 4.29944
23.7500 4.29187
25.6250 4.28449
27.5000 4.27728
29.3750 4.27023
31.2500 4.26333
33.1250 4.25658
35.0000 4.24996
36.8750 4.24348
38.7500 4.23714
40.6250 4.23091
42.5000 4.22481
44.3750 4.21882
46.2500 4.21294
48.1250 4.20717
50.0000 4.20151
53.1250 4.19230
56.2500 4.18335
59.3750 4.17466
62.5000 4.16622
65.6250 4.15800
68.7500 4.15000
71.8750 4.14222
75.0000 4.13463
78.1250 4.12724
81.2500 4.12003
84.3750 4.11300
87.5000 4.10614
90.6250 4.09944
93.7500 4.09290
96.8750 4.08650
100.000 4.08025
106.250 4.06815
112.500 4.05657
118.750 4.04545
125.000 4.03476
131.250 4.02447
137.500 4.01456
143.750 4.00499
150.000 3.99574
156.250 3.98678
162.500 3.97810
168.750 3.96967
175.000 3.96147
187.500 3.94569
200.000 3.93061
210.408 3.91851
220.816 3.90672
231.224 3.89518
241.632 3.88380
255.510 3.86874
269.387 3.85360
276.326 3.84590
283.264 3.83808
290.203 3.83006
297.141 3.82182
301.767 3.81616
308.128 3.80810
314.488 3.79967
320.849 3.79078
324.029 3.78613
327.209 3.78134
330.823 3.77570
332.630 3.77280
334.437 3.76986
336.244 3.76688
338.051 3.76389
338.954 3.76241
339.858 3.76096
340.761 3.75956
341.665 3.75825
342.189 3.75757
342.713 3.75698
343.237 3.75653
343.761 3.75628
344.023 3.75627
344.285 3.75637
344.547 3.75662
344.809 3.75707
345.071 3.75781
345.333 3.75894
345.595 3.76066
345.726 3.76185
345.857 3.76333
346.001 3.76544
346.146 3.76822
346.290 3.77200
346.363 3.77444
346.435 3.77740
346.507 3.78107
346.580 3.78574
346.652 3.79183
346.724 3.79999
346.796 3.81124
346.833 3.81847
346.869 3.82702
346.905 3.83724
346.941 3.84939
346.977 3.86387
347.013 3.88109
347.045 3.89887
347.076 3.91942
347.108 3.94319
347.140 3.97056
347.171 4.00208
347.203 4.03797
347.235 4.07877
347.266 4.12489
347.298 4.17690
347.329 4.23483
347.361 4.29913
347.393 4.37002
347.424 4.44763
347.456 4.53195
347.487 4.62286
347.519 4.72009
347.548 4.81583
347.578 4.91616
347.607 5.02047
347.637 5.12761
347.754 5.56942
347.786 5.68570
347.817 5.79725
347.849 5.90273
347.880 6.00047
347.902 6.06171
347.923 6.11812
347.945 6.16925
347.966 6.21447
347.991 6.25932
348.016 6.29557
348.046 6.32768
348.077 6.34565
348.100 6.34975
348.131 6.34216
348.161 6.32013
348.187 6.29077
348.212 6.25203
348.240 6.19957
348.268 6.13740
348.293 6.07216
348.319 6.00032
348.344 5.92211
348.370 5.83898
348.414 5.68522
348.457 5.52339
348.545 5.19193
348.587 5.03807
348.629 4.89068
348.649 4.81995
348.670 4.75151
348.691 4.68553
348.712 4.62216
348.733 4.56124
348.753 4.50343
348.774 4.44850
348.795 4.39647
348.816 4.34735
348.837 4.30112
348.857 4.25775
348.878 4.21717
348.903 4.17321
348.927 4.13282
348.951 4.09586
348.975 4.06214
349.000 4.03148
349.024 4.00369
349.048 3.97857
349.073 3.95602
349.097 3.93565
349.121 3.91738
349.145 3.90101
349.170 3.88638
349.218 3.86168
349.267 3.84212
349.315 3.82658
349.364 3.81425
349.413 3.80443
349.461 3.79656
349.510 3.79018
349.558 3.78496
349.655 3.77698
349.729 3.77241
349.803 3.76873
349.951 3.76310
350.099 3.75894
350.247 3.75570
350.395 3.75310
350.543 3.75096
350.691 3.74915
350.839 3.74759
351.135 3.74503
351.431 3.74298
351.727 3.74126
352.023 3.73978
352.310 3.73851
352.597 3.73735
353.171 3.73526
353.744 3.73338
354.318 3.73162
354.891 3.72995
355.465 3.72833
356.612 3.72516
357.759 3.72202
358.906 3.71887
361.200 3.71242
362.384 3.70899
364.752 3.70185
368.008 3.69129
371.264 3.67970
374.521 3.66687
377.777 3.65252
381.033 3.63631
382.661 3.62736
384.289 3.61777
385.917 3.60745
387.545 3.59630
389.173 3.58421
390.801 3.57105
393.022 3.55108
394.132 3.54007
395.242 3.52829
396.352 3.51569
397.462 3.50206
398.572 3.48733
399.682 3.47136
401.310 3.44531
402.124 3.43094
402.938 3.41553
403.752 3.39898
404.566 3.38114
405.380 3.36184
406.194 3.34092
406.823 3.32349
407.452 3.30483
408.081 3.28480
408.710 3.26326
409.340 3.24003
409.969 3.21494
410.598 3.18766
411.227 3.15790
411.634 3.13717
412.041 3.11516
412.448 3.09175
412.855 3.06679
413.262 3.04014
413.669 3.01160
414.076 2.98099
414.483 2.94806
414.816 2.91919
415.149 2.88843
415.482 2.85559
415.815 2.82044
416.148 2.78274
416.481 2.74225
416.814 2.69861
417.147 2.65144
417.350 2.62070
417.554 2.58837
417.757 2.55435
417.961 2.51851
418.164 2.48071
418.368 2.44080
418.571 2.39861
418.775 2.35399
418.960 2.31112
419.145 2.26596
419.330 2.21832
419.515 2.16806
419.700 2.11504
419.792 2.08744
419.885 2.05910
419.977 2.03001
420.070 2.00016
420.162 1.96953
420.255 1.93813
420.357 1.90269
420.458 1.86638
420.560 1.82917
420.662 1.79119
420.764 1.75246
420.865 1.71318
420.967 1.67347
421.069 1.63367
421.171 1.59404
421.222 1.57446
421.273 1.55513
421.323 1.53614
421.374 1.51759
421.425 1.49962
421.476 1.48240
421.527 1.46604
421.578 1.45078
421.629 1.43689
421.680 1.42471
421.730 1.41455
421.781 1.40692
421.832 1.40241
421.883 1.40180
421.943 1.40753
421.973 1.41367
422.003 1.42245
422.033 1.43437
422.063 1.44990
422.094 1.46981
422.124 1.49478
422.154 1.52597
422.184 1.56453
422.214 1.61196
422.244 1.66987
422.274 1.74089
422.304 1.82728
422.319 1.87768
422.334 1.93294
422.349 1.99393
422.364 2.06121
422.385 2.16668
422.406 2.28693
422.427 2.42460
422.447 2.58216
422.468 2.76239
422.479 2.86198
422.489 2.96844
422.499 3.08223
422.510 3.20384
422.520 3.33378
422.531 3.47259
422.541 3.62232
422.551 3.78073
422.562 3.94983
422.572 4.13032
422.583 4.32289
422.593 4.52831
422.603 4.74737
422.614 4.98090
422.624 5.22979
422.635 5.49495
422.645 5.77736
422.655 6.07803
422.666 6.39804
422.676 6.73849
422.687 7.10055
422.697 7.48545
422.706 7.85003
422.716 8.23059
422.725 8.63638
422.734 9.05969
422.743 9.51075
422.753 9.98094
422.762 10.4816
422.771 11.0032
422.780 11.5581
422.790 12.1357
422.799 12.7498
422.808 13.3886
422.817 14.0672
422.827 14.7725
422.836 15.5212
422.845 16.2986
422.856 17.2325
422.866 18.2086
422.876 19.2379
422.887 20.3225
422.897 21.4650
422.908 22.6676
422.918 23.9329
422.928 25.2633
422.939 26.6614
422.949 28.1298
422.960 29.6710
422.970 31.2879
422.980 32.9829
422.991 34.7590
423.001 36.6187
423.012 38.5648
423.024 41.0827
423.037 43.7195
423.050 46.4994
423.062 49.4272
423.075 52.5327
423.088 55.7723
423.101 59.1744
423.113 62.7435
423.126 66.5143
423.139 70.4321
423.152 74.5298
423.164 78.8113
423.177 83.2800
423.190 87.9394
423.202 92.7923
423.215 97.8414
423.228 103.131
423.241 108.581
423.266 120.086
423.291 132.453
423.317 145.583
423.342 159.566
423.368 174.271
423.393 189.717
423.419 205.862
423.444 222.716
423.469 240.079
423.520 276.272
423.622 351.236
423.666 383.162
423.710 413.660
423.735 430.452
423.761 446.320
423.786 461.245
423.812 474.971
423.837 487.430
423.863 498.501
423.897 511.192
423.923 518.605
423.948 524.294
423.980 529.001
424.000 530.450
424.003 530.573
424.012 530.808
424.021 530.808
424.039 530.113
424.070 526.862
424.101 521.098
424.131 512.872
424.160 502.899
424.189 490.969
424.220 476.494
424.251 460.302
424.287 439.178
424.323 416.376
424.384 374.866
424.445 331.610
424.506 288.311
424.536 267.216
424.567 246.695
424.593 229.509
424.620 212.942
424.646 197.058
424.672 181.966
424.699 167.593
424.725 154.073
424.751 141.320
424.778 129.438
424.793 122.902
424.808 116.640
424.824 110.650
424.839 104.965
424.854 99.5053
424.869 94.3372
424.885 89.3874
424.900 84.7143
424.915 80.2499
424.930 76.0188
424.946 72.0136
424.961 68.2508
424.976 64.6731
424.991 61.3195
425.007 58.1378
425.022 55.1616
425.041 51.6004
425.061 48.3285
425.080 45.3109
425.100 42.5314
425.119 39.9620
425.139 37.6137
425.158 35.4584
425.177 33.4819
425.197 31.6621
425.216 30.0048
425.236 28.4883
425.255 27.1011
425.275 25.8262
425.294 24.6669
425.313 23.6067
425.333 22.6371
425.348 21.9310
425.363 21.2725
425.379 20.6581
425.394 20.0883
425.409 19.5524
425.424 19.0516
425.440 18.5832
425.455 18.1475
425.470 17.7366
425.486 17.3512
425.501 16.9893
425.516 16.6515
425.531 16.3314
425.547 16.0317
425.562 15.7472
425.577 15.4802
425.592 15.2259
425.608 14.9851
425.623 14.7568
425.638 14.5413
425.669 14.1399
425.699 13.7747
425.730 13.4397
425.760 13.1329
425.791 12.8494
425.821 12.5863
425.852 12.3403
425.882 12.1110
425.913 11.8957
425.943 11.6929
425.974 11.5007
426.004 11.3193
426.035 11.1471
426.065 10.9834
426.127 10.6780
426.188 10.3994
426.249 10.1432
426.310 9.90721
426.368 9.69809
426.426 9.50324
426.485 9.32122
426.543 9.15075
426.601 8.99075
426.659 8.84028
426.718 8.69850
426.776 8.56491
426.834 8.43838
426.893 8.31859
426.951 8.20500
427.009 8.09734
427.067 7.99482
427.126 7.89724
427.242 7.71572
427.364 7.54265
427.486 7.38493
427.608 7.24066
427.731 7.10826
427.853 6.98638
427.975 6.87389
428.097 6.76981
428.219 6.67328
428.341 6.58357
428.463 6.50006
428.585 6.42217
428.707 6.34942
428.829 6.28140
428.952 6.21772
429.074 6.15808
429.196 6.10218
429.312 6.05207
429.429 6.00496
429.546 5.96068
429.662 5.91910
429.779 5.88003
429.895 5.84343
430.012 5.80912
430.128 5.77709
430.245 5.74720
430.361 5.71946
430.478 5.69379
430.594 5.67018
430.711 5.64860
430.828 5.62909
430.944 5.61164
431.061 5.59631
431.183 5.58257
431.305 5.57132
431.427 5.56267
431.549 5.55679
431.671 5.55386
431.793 5.55414
431.915 5.55793
432.038 5.56560
432.099 5.57104
432.160 5.57763
432.221 5.58546
432.282 5.59459
432.343 5.60514
432.404 5.61719
432.465 5.63089
432.526 5.64634
432.587 5.66373
432.648 5.68318
432.709 5.70495
432.770 5.72918
432.831 5.75622
432.892 5.78626
432.953 5.81973
433.014 5.85692
433.059 5.88662
433.103 5.91876
433.164 5.96740
433.225 6.02171
433.286 6.08272
433.347 6.15125
433.409 6.22885
433.439 6.27143
433.470 6.31690
433.500 6.36570
433.531 6.41784
433.561 6.47385
433.592 6.53416
433.622 6.59949
433.653 6.67000
433.683 6.74658
433.714 6.83003
433.744 6.92159
433.775 7.02175
433.805 7.13209
433.836 7.25411
433.866 7.39003
433.897 7.54101
433.927 7.70988
433.958 7.89942
433.973 8.00327
433.989 8.11358
434.004 8.23084
434.019 8.35472
434.034 8.48741
434.050 8.62778
434.065 8.77829
434.080 8.93765
434.102 9.18953
434.124 9.46626
434.147 9.77048
434.169 10.1050
434.191 10.4730
434.213 10.8778
434.235 11.3229
434.258 11.8122
434.280 12.3499
434.302 12.9404
434.324 13.5882
434.346 14.2982
434.369 15.0755
434.391 15.9255
434.413 16.8536
434.435 17.8654
434.451 18.6145
434.466 19.4079
434.481 20.2477
434.496 21.1296
434.512 22.0673
434.527 23.0503
434.542 24.0933
434.557 25.1845
434.573 26.3399
434.588 27.5543
434.603 28.8291
434.618 30.1570
434.634 31.5567
434.649 33.0112
434.664 34.5407
434.679 36.1261
434.709 39.3588
434.738 42.8274
434.767 46.5563
434.796 50.5170
434.825 54.7301
434.854 59.1564
434.883 63.7952
434.913 68.6276
434.943 73.8921
434.974 79.2944
435.035 90.4079
435.096 101.646
435.157 112.549
435.207 120.929
435.257 128.513
435.287 132.671
435.318 136.378
435.348 139.600
435.379 142.294
435.412 144.583
435.445 146.162
435.473 146.920
435.500 147.168
435.536 146.720
435.572 145.414
435.596 144.067
435.620 142.355
435.647 139.953
435.675 137.116
435.718 131.874
435.761 125.777
435.804 118.963
435.848 111.629
435.907 101.048
435.966 90.2122
436.009 82.2937
436.052 74.5816
436.095 67.1516
436.139 60.1284
436.160 56.7698
436.182 53.5484
436.203 50.4535
436.225 47.4894
436.247 44.6459
436.268 41.9511
436.290 39.3922
436.312 36.9690
436.331 34.8762
436.351 32.8939
436.371 31.0201
436.390 29.2611
436.410 27.5962
436.430 26.0393
436.449 24.5713
436.469 23.2033
436.489 21.9179
436.508 20.7241
436.528 19.6059
436.547 18.5705
436.567 17.6035
436.587 16.7107
436.606 15.8790
436.626 15.1129
436.648 14.3316
436.669 13.6190
436.691 12.9665
436.713 12.3697
436.734 11.8218
436.756 11.3237
436.777 10.8690
436.799 10.4540
436.821 10.0736
436.842 9.72808
436.864 9.41274
436.886 9.12480
436.907 8.86176
436.929 8.62128
436.950 8.40124
436.972 8.19970
437.000 7.96627
437.027 7.75755
437.055 7.56974
437.082 7.40027
437.110 7.24637
437.137 7.10719
437.165 6.98043
437.192 6.86460
437.220 6.75803
437.247 6.66037
437.275 6.57024
437.302 6.48678
437.330 6.40926
437.357 6.33705
437.385 6.26960
437.412 6.20641
437.456 6.11459
437.499 6.03114
437.542 5.95456
437.585 5.88429
437.629 5.81925
437.672 5.75912
437.715 5.70308
437.758 5.65095
437.802 5.60212
437.845 5.55646
437.888 5.51350
437.931 5.47317
437.975 5.43508
438.018 5.39920
438.061 5.36520
438.104 5.33307
438.191 5.27360
438.277 5.21984
438.364 5.17103
438.450 5.12650
438.537 5.08573
438.623 5.04826
438.710 5.01370
438.796 4.98177
438.879 4.95339
438.961 4.92690
439.044 4.90212
439.126 4.87890
439.209 4.85705
439.292 4.83649
439.374 4.81707
439.457 4.79872
439.539 4.78133
439.622 4.76483
439.704 4.74916
439.787 4.73426
439.870 4.72005
439.952 4.70650
440.117 4.68115
440.212 4.66762
440.306 4.65473
440.495 4.63064
440.683 4.60857
440.872 4.58824
441.061 4.56943
441.249 4.55197
441.438 4.53568
441.627 4.52043
441.800 4.50727
441.973 4.49481
442.146 4.48299
442.319 4.47175
442.492 4.46104
