Xe-132(n,g) ENDFB-8.0
Energy(eV) XS(b)
1.00000E-05 241.299
1.03125E-05 237.615
1.06250E-05 234.095
1.09375E-05 230.726
1.12500E-05 227.499
1.15625E-05 224.404
1.18750E-05 221.431
1.21875E-05 218.574
1.25000E-05 215.824
1.28125E-05 213.176
1.31250E-05 210.623
1.34375E-05 208.160
1.37500E-05 205.781
1.43750E-05 201.257
1.50000E-05 197.020
1.56250E-05 193.039
1.62500E-05 189.290
1.68750E-05 185.752
1.75000E-05 182.405
1.81250E-05 179.232
1.87500E-05 176.220
1.93750E-05 173.354
2.00000E-05 170.624
2.09375E-05 166.760
2.18750E-05 163.148
2.28125E-05 159.760
2.37500E-05 156.575
2.46875E-05 153.574
2.56250E-05 150.738
2.65625E-05 148.054
2.75000E-05 145.508
2.84375E-05 143.090
2.93750E-05 140.788
3.03125E-05 138.594
3.12500E-05 136.499
3.21875E-05 134.496
3.31250E-05 132.579
3.40625E-05 130.742
3.50000E-05 128.979
3.59375E-05 127.286
3.68750E-05 125.657
3.78125E-05 124.090
3.87500E-05 122.580
3.96875E-05 121.123
4.06250E-05 119.717
4.25000E-05 117.047
4.43750E-05 114.547
4.62500E-05 112.201
4.81250E-05 109.994
5.00000E-05 107.912
5.15625E-05 106.264
5.31250E-05 104.690
5.46875E-05 103.183
5.62500E-05 101.740
5.78125E-05 100.356
5.93750E-05 99.0263
6.09375E-05 97.7484
6.25000E-05 96.5188
6.40625E-05 95.3345
6.56250E-05 94.1927
6.71875E-05 93.0909
6.87500E-05 92.0270
7.18750E-05 90.0041
7.50000E-05 88.1090
7.81250E-05 86.3288
8.12500E-05 84.6523
8.43750E-05 83.0699
8.75000E-05 81.5729
9.06250E-05 80.1541
9.37500E-05 78.8069
9.68750E-05 77.5253
0.000100000 76.3043
0.000103125 75.1393
0.000106250 74.0260
0.000109375 72.9608
0.000112500 71.9403
0.000115625 70.9614
0.000118750 70.0214
0.000121875 69.1179
0.000125000 68.2484
0.000128125 67.4109
0.000131250 66.6035
0.000134375 65.8245
0.000137500 65.0721
0.000143750 63.6417
0.000150000 62.3017
0.000156250 61.0429
0.000162500 59.8574
0.000168750 58.7384
0.000175000 57.6799
0.000181250 56.6767
0.000187500 55.7240
0.000193750 54.8178
0.000200000 53.9544
0.000209375 52.7326
0.000218750 51.5901
0.000228125 50.5188
0.000237500 49.5116
0.000246875 48.5624
0.000256250 47.6657
0.000265625 46.8169
0.000275000 46.0119
0.000284375 45.2470
0.000293750 44.5191
0.000303125 43.8252
0.000312500 43.1627
0.000321875 42.5294
0.000331250 41.9232
0.000340625 41.3422
0.000350000 40.7847
0.000359375 40.2491
0.000368750 39.7341
0.000378125 39.2384
0.000387500 38.7608
0.000396875 38.3002
0.000406250 37.8556
0.000425000 37.0110
0.000443750 36.2206
0.000462500 35.4787
0.000481250 34.7805
0.000500000 34.1221
0.000515625 33.6010
0.000531250 33.1031
0.000546875 32.6267
0.000562500 32.1703
0.000578125 31.7325
0.000593750 31.3121
0.000609375 30.9080
0.000625000 30.5191
0.000640625 30.1445
0.000656250 29.7834
0.000671875 29.4350
0.000687500 29.0985
0.000718750 28.4588
0.000750000 27.8594
0.000781250 27.2964
0.000812500 26.7662
0.000843750 26.2657
0.000875000 25.7923
0.000906250 25.3436
0.000937500 24.9175
0.000968750 24.5122
0.00100000 24.1260
0.00103125 23.7576
0.00106250 23.4055
0.00109375 23.0686
0.00112500 22.7458
0.00115625 22.4362
0.00118750 22.1389
0.00121875 21.8531
0.00125000 21.5781
0.00128125 21.3133
0.00131250 21.0579
0.00134375 20.8115
0.00137500 20.5735
0.00143750 20.1211
0.00150000 19.6973
0.00156250 19.2991
0.00162500 18.9241
0.00168750 18.5702
0.00175000 18.2354
0.00181250 17.9180
0.00187500 17.6167
0.00193750 17.3300
0.00200000 17.0569
0.00209375 16.6704
0.00218750 16.3090
0.00228125 15.9701
0.00237500 15.6515
0.00246875 15.3512
0.00256250 15.0675
0.00265625 14.7990
0.00275000 14.5443
0.00284375 14.3024
0.00293750 14.0721
0.00303125 13.8525
0.00312500 13.6429
0.00321875 13.4426
0.00331250 13.2508
0.00340625 13.0669
0.00350000 12.8905
0.00359375 12.7211
0.00368750 12.5582
0.00378125 12.4013
0.00387500 12.2502
0.00396875 12.1044
0.00406250 11.9638
0.00425000 11.6965
0.00443750 11.4464
0.00462500 11.2116
0.00481250 10.9907
0.00500000 10.7823
0.00515625 10.6174
0.00531250 10.4599
0.00546875 10.3091
0.00562500 10.1646
0.00578125 10.0261
0.00593750 9.89302
0.00609375 9.76511
0.00625000 9.64203
0.00640625 9.52348
0.00656250 9.40918
0.00671875 9.29890
0.00687500 9.19239
0.00718750 8.98987
0.00750000 8.80014
0.00781250 8.62190
0.00812500 8.45403
0.00843750 8.29556
0.00875000 8.14565
0.00906250 8.00355
0.00937500 7.86861
0.00968750 7.74024
0.0100000 7.61794
0.0103125 7.50123
0.0106250 7.38971
0.0109375 7.28300
0.0112500 7.18076
0.0115625 7.08270
0.0118750 6.98853
0.0121875 6.89801
0.0125000 6.81090
0.0128125 6.72699
0.0131250 6.64609
0.0134375 6.56804
0.0137500 6.49265
0.0143750 6.34930
0.0150000 6.21499
0.0156250 6.08881
0.0162500 5.96995
0.0168750 5.85774
0.0175000 5.75159
0.0181250 5.65096
0.0187500 5.55539
0.0193750 5.46447
0.0200000 5.37784
0.0206625 5.29033
0.0213250 5.20693
0.0219875 5.12731
0.0226500 5.05121
0.0233125 4.97837
0.0239750 4.90856
0.0246375 4.84158
0.0253000 4.77725
0.0264578 4.67066
0.0276156 4.57084
0.0287734 4.47709
0.0299313 4.38883
0.0310891 4.30554
0.0322469 4.22677
0.0334047 4.15212
0.0345625 4.08123
0.0355274 4.02480
0.0364922 3.97062
0.0374570 3.91853
0.0384219 3.86840
0.0393867 3.82011
0.0403516 3.77356
0.0413164 3.72863
0.0422813 3.68525
0.0442109 3.60276
0.0461406 3.52548
0.0480703 3.45288
0.0500000 3.38451
0.0515625 3.33197
0.0531250 3.28175
0.0546875 3.23369
0.0562500 3.18764
0.0578125 3.14345
0.0593750 3.10102
0.0609375 3.06022
0.0625000 3.02096
0.0640625 2.98314
0.0656250 2.94668
0.0671875 2.91149
0.0687500 2.87750
0.0718750 2.81285
0.0750000 2.75224
0.0781250 2.69525
0.0812500 2.64155
0.0843750 2.59083
0.0875000 2.54283
0.0906250 2.49731
0.0937500 2.45407
0.0968750 2.41292
0.100000 2.37370
0.103125 2.33625
0.106250 2.30046
0.109375 2.26619
0.112500 2.23335
0.115625 2.20183
0.118750 2.17156
0.121875 2.14244
0.125000 2.11441
0.128125 2.08741
0.131250 2.06138
0.134375 2.03625
0.137500 2.01198
0.143750 1.96580
0.150000 1.92247
0.156250 1.88170
0.162500 1.84327
0.168750 1.80697
0.175000 1.77260
0.181250 1.73999
0.187500 1.70900
0.193750 1.67950
0.200000 1.65137
0.204688 1.63112
0.209375 1.61156
0.218750 1.57429
0.228125 1.53927
0.237500 1.50629
0.246875 1.47517
0.256250 1.44574
0.265625 1.41784
0.275000 1.39135
0.284375 1.36616
0.293750 1.34215
0.303125 1.31924
0.312500 1.29734
0.321875 1.27638
0.331250 1.25630
0.340625 1.23702
0.350000 1.21851
0.359375 1.20071
0.368750 1.18357
0.378125 1.16705
0.387500 1.15112
0.396875 1.13575
0.406250 1.12089
0.415625 1.10654
0.425000 1.09267
0.443750 1.06619
0.462500 1.04125
0.500000 0.995578
0.531250 0.961159
0.562500 0.929473
0.593750 0.900235
0.625000 0.873140
0.687500 0.824403
0.750000 0.781666
0.812500 0.743771
0.875000 0.709937
0.937500 0.679405
1.00000 0.651584
1.06250 0.626158
1.12500 0.602798
1.18750 0.581236
1.25000 0.561249
1.31250 0.542655
1.37500 0.525297
1.50000 0.493781
1.62500 0.465860
1.75000 0.440949
1.87500 0.418508
2.00000 0.398094
2.09375 0.383974
2.18750 0.370781
2.28125 0.358402
2.37500 0.346760
2.56250 0.325425
2.75000 0.306358
2.93750 0.289177
3.12500 0.273574
3.31250 0.259362
3.50000 0.246359
3.68750 0.234414
3.87500 0.223403
4.06250 0.213220
4.25000 0.203775
4.43750 0.194992
4.62500 0.186803
4.81250 0.179153
5.00000 0.172003
5.31250 0.161044
5.62500 0.151133
5.93750 0.142143
6.25000 0.133956
6.56250 0.126476
6.87500 0.119619
7.18750 0.113314
7.50000 0.107502
7.81250 0.102132
8.12500 0.0971565
8.43750 0.0925385
8.75000 0.0882431
9.06250 0.0842404
9.37500 0.0805038
9.68750 0.0770099
10.0000 0.0737378
10.3125 0.0706689
10.6250 0.0677864
10.9375 0.0650755
11.2500 0.0625228
11.5625 0.0601160
11.8750 0.0578443
12.1875 0.0556976
12.5000 0.0536716
13.1250 0.0499306
13.7500 0.0465591
14.3750 0.0435141
15.0000 0.0407551
15.6250 0.0382476
16.2500 0.0359621
16.8750 0.0338735
17.5000 0.0319599
18.1250 0.0302027
18.7500 0.0285854
19.3750 0.0270939
20.0000 0.0257147
20.4688 0.0247478
20.9375 0.0238349
21.4063 0.0229716
21.8750 0.0221559
22.5781 0.0210195
23.2813 0.0199629
23.9844 0.0189764
24.6875 0.0180600
25.3906 0.0172200
26.0938 0.0164355
26.7969 0.0156986
27.5000 0.0150100
28.2031 0.0143739
28.9063 0.0137766
29.6094 0.0132130
30.3125 0.0126835
31.0156 0.0121912
31.7188 0.0117270
32.4219 0.0112870
33.1250 0.0108719
34.0625 0.0103569
35.0000 0.00987949
35.9375 0.00943606
36.8750 0.00902355
37.8125 0.00863920
38.7500 0.00828057
39.6875 0.00794546
40.6250 0.00763190
41.5625 0.00733812
42.5000 0.00706253
43.4375 0.00680369
44.3750 0.00656029
45.3125 0.00633117
46.2500 0.00611558
48.1250 0.00571982
50.0000 0.00536583
51.5625 0.00509895
52.9297 0.00488460
54.2969 0.00468602
55.6641 0.00450132
57.0313 0.00432923
58.3984 0.00416868
59.7656 0.00401872
61.1328 0.00387854
62.5000 0.00374760
64.8438 0.00354317
67.1875 0.00335828
69.5313 0.00319316
71.8750 0.00304308
75.0000 0.00286540
78.1250 0.00270891
81.2500 0.00257059
84.3750 0.00244785
87.5000 0.00233855
90.6250 0.00224091
93.7500 0.00215342
96.8750 0.00207482
100.000 0.00200405
103.125 0.00194019
106.250 0.00188246
109.375 0.00183019
112.500 0.00178281
115.625 0.00173981
118.750 0.00170081
125.000 0.00163314
131.250 0.00157726
137.500 0.00153128
143.750 0.00149371
150.000 0.00146337
156.250 0.00143933
162.500 0.00142085
168.750 0.00140736
175.000 0.00139839
181.250 0.00139362
190.625 0.00139413
200.000 0.00140211
209.886 0.00142005
219.772 0.00144630
229.658 0.00148173
239.544 0.00152770
249.430 0.00158391
259.316 0.00165352
264.259 0.00169303
269.202 0.00173791
279.088 0.00183896
284.930 0.00191000
290.772 0.00198987
296.614 0.00207759
302.455 0.00217907
308.297 0.00229382
314.139 0.00242574
319.981 0.00257764
325.822 0.00275273
329.867 0.00289177
333.911 0.00304767
337.955 0.00322296
342.000 0.00342099
346.044 0.00364600
350.088 0.00390324
354.132 0.00419836
358.177 0.00454380
360.648 0.00478426
363.120 0.00504972
365.591 0.00534480
368.063 0.00567515
370.534 0.00604411
373.006 0.00646136
375.477 0.00693423
377.949 0.00747169
379.634 0.00788371
381.319 0.00833796
383.004 0.00884056
384.689 0.00939846
386.375 0.0100154
388.060 0.0107106
389.745 0.0114926
391.430 0.0123767
392.666 0.0131008
393.901 0.0138987
395.137 0.0147812
396.373 0.0157607
397.609 0.0168520
398.844 0.0180734
400.080 0.0194463
401.316 0.0209970
402.271 0.0223378
403.226 0.0238221
404.181 0.0254715
405.135 0.0273116
406.090 0.0293723
407.045 0.0316789
408.000 0.0342978
408.478 0.0357394
408.955 0.0372785
409.573 0.0394308
410.191 0.0417847
410.809 0.0443663
411.427 0.0472058
412.044 0.0503397
412.662 0.0538100
413.280 0.0576667
413.898 0.0619688
414.460 0.0663277
415.021 0.0711794
415.302 0.0738140
415.583 0.0766011
415.864 0.0795548
416.145 0.0826863
416.426 0.0860128
416.707 0.0895482
416.987 0.0933129
417.268 0.0973229
417.549 0.101601
417.830 0.106166
418.111 0.111053
418.392 0.116296
418.701 0.122523
419.010 0.129276
419.319 0.136619
419.627 0.144616
419.936 0.153353
420.245 0.162917
420.554 0.173424
420.863 0.184994
421.172 0.197787
421.481 0.211970
421.790 0.227759
421.945 0.236336
422.099 0.245408
422.253 0.255025
422.408 0.265227
422.562 0.276062
422.717 0.287575
422.871 0.299841
423.026 0.312910
423.180 0.326871
423.335 0.341786
423.531 0.362315
423.728 0.384763
423.924 0.409382
424.121 0.436471
424.318 0.466382
424.514 0.499530
424.711 0.536402
424.809 0.556410
424.907 0.577575
425.062 0.613398
425.216 0.652706
425.371 0.695968
425.525 0.743702
425.680 0.796623
425.834 0.855477
425.912 0.887435
425.989 0.921197
426.066 0.956951
426.143 0.994859
426.228 1.03893
426.312 1.08598
426.396 1.13642
426.480 1.19046
426.565 1.24860
426.649 1.31111
426.733 1.37863
426.775 1.41436
426.817 1.45152
426.891 1.52038
426.928 1.55671
426.965 1.59428
427.002 1.63337
427.039 1.67396
427.075 1.71611
427.112 1.75979
427.167 1.82758
427.181 1.84567
427.195 1.86418
427.246 1.93342
427.300 2.01190
427.327 2.05301
427.354 2.09542
427.382 2.13921
427.409 2.18442
427.436 2.23114
427.463 2.27942
427.502 2.35097
427.541 2.42586
427.579 2.50454
427.618 2.58726
427.656 2.67456
427.695 2.76631
427.734 2.86310
427.772 2.96532
427.792 3.01888
427.811 3.07369
427.830 3.13009
427.850 3.18815
427.869 3.24794
427.888 3.30953
427.907 3.37299
427.927 3.43842
427.946 3.50590
427.965 3.57553
427.985 3.64740
428.004 3.72163
428.023 3.79834
428.043 3.87763
428.062 3.95965
428.081 4.04453
428.101 4.13290
428.120 4.22401
428.139 4.31847
428.158 4.41648
428.178 4.51825
428.197 4.62399
428.216 4.73396
428.236 4.84841
428.255 4.96762
428.274 5.09191
428.294 5.22162
428.313 5.35711
428.332 5.49880
428.351 5.64711
428.371 5.80255
428.390 5.96562
428.409 6.13784
428.429 6.31805
428.448 6.50783
428.467 6.70795
428.487 6.91925
428.506 7.14265
428.525 7.37918
428.545 7.62994
428.564 7.89759
428.583 8.18071
428.603 8.48211
428.622 8.80340
428.641 9.14635
428.660 9.51287
428.680 9.90508
428.699 10.3253
428.718 10.7783
428.738 11.2623
428.757 11.7824
428.776 12.3417
428.796 12.9438
428.815 13.5924
428.834 14.2913
428.854 15.0450
428.873 15.8579
428.892 16.7349
428.911 17.6814
428.931 18.7027
428.950 19.8048
428.969 20.9939
428.989 22.2764
429.008 23.6591
429.023 24.8076
429.038 26.0160
429.053 27.2953
429.068 28.6491
429.083 30.0909
429.098 31.6053
429.112 33.2053
429.127 34.8948
429.142 36.6900
429.157 38.5709
429.172 40.5529
429.187 42.6401
429.202 44.8363
429.217 47.1452
429.232 49.5706
429.247 52.1162
429.266 55.5979
429.285 59.2943
429.305 63.2122
429.324 67.3578
429.343 71.7365
429.362 76.3530
429.382 81.2109
429.401 86.3127
429.420 91.6884
429.440 97.2826
429.459 103.121
429.478 109.202
429.498 115.553
429.517 122.103
429.536 128.877
429.556 135.865
429.594 150.435
429.633 165.699
429.671 181.510
429.710 197.692
429.773 224.443
429.836 250.598
429.875 265.826
429.914 280.090
429.952 293.162
429.991 304.755
430.029 314.695
430.068 322.740
430.090 326.349
430.111 329.273
430.133 331.511
430.154 333.047
430.190 334.021
430.197 333.975
430.221 333.270
430.244 331.719
430.267 329.335
430.291 326.154
430.314 322.285
430.336 317.719
430.359 312.451
430.382 306.566
430.405 299.876
430.429 292.604
430.475 276.531
430.522 258.810
430.569 239.962
430.641 209.594
430.713 179.219
430.760 160.218
430.807 142.101
430.830 133.450
430.854 125.102
430.877 117.076
430.901 109.386
430.924 102.045
430.947 95.0591
430.971 88.4325
430.994 82.1662
431.018 76.2581
431.041 70.7039
431.064 65.4967
431.088 60.6279
431.111 56.0871
431.135 51.8625
431.158 47.9412
431.181 44.3095
431.205 40.9530
431.228 37.8568
431.252 35.0061
431.275 32.3857
431.298 29.9808
431.322 27.7766
431.345 25.7590
431.369 23.9140
431.392 22.2285
431.415 20.6898
431.439 19.2858
431.462 18.0104
431.486 16.8421
431.509 15.7767
431.532 14.8048
431.556 13.9180
431.579 13.1082
431.603 12.3683
431.626 11.6915
431.649 11.0717
431.673 10.5035
431.696 9.98181
431.720 9.50202
431.743 9.06005
431.766 8.65220
431.790 8.27511
431.813 7.92581
431.837 7.60159
431.868 7.19572
431.900 6.82670
431.932 6.48992
431.964 6.18145
431.996 5.89791
432.028 5.63642
432.060 5.39447
432.092 5.16994
432.124 4.96098
432.156 4.76600
432.187 4.58362
432.219 4.41263
432.251 4.25199
432.283 4.10078
432.347 3.82351
432.394 3.63893
432.441 3.46826
432.487 3.31004
432.534 3.16300
432.581 3.02602
432.628 2.89817
432.675 2.77860
432.721 2.66658
432.768 2.56144
432.815 2.46263
432.862 2.36961
432.909 2.28193
432.955 2.19917
433.002 2.12097
433.096 1.97703
433.189 1.84748
433.283 1.73053
433.376 1.62457
433.470 1.52824
433.564 1.44038
433.657 1.36002
433.751 1.28632
433.844 1.21861
433.929 1.16159
434.015 1.10854
434.100 1.05910
434.185 1.01297
434.270 0.969785
434.355 0.929328
434.440 0.891374
434.525 0.855759
434.610 0.822216
434.695 0.790623
434.780 0.760830
434.865 0.732735
434.950 0.706150
435.035 0.680997
435.206 0.634617
435.299 0.611105
435.393 0.588885
435.580 0.547959
435.767 0.511186
435.954 0.478034
436.141 0.448013
436.329 0.420751
436.516 0.395920
436.703 0.373250
436.831 0.358886
436.958 0.345352
437.086 0.332577
437.213 0.320506
437.469 0.298276
437.724 0.278306
437.979 0.260282
438.234 0.243963
438.490 0.229134
438.745 0.215623
438.932 0.206462
439.119 0.197877
439.306 0.189822
439.493 0.182257
439.681 0.175136
439.868 0.168428
440.055 0.162102
440.242 0.156133
440.429 0.150488
440.617 0.145147
440.991 0.135297
441.365 0.126428
441.739 0.118414
442.114 0.111147
442.488 0.104540
442.863 0.0985136
443.237 0.0930035
443.611 0.0879502
443.986 0.0833071
444.360 0.0790303
444.734 0.0750879
445.092 0.0716043
445.449 0.0683634
445.806 0.0653384
446.164 0.0625124
446.521 0.0598701
446.878 0.0573977
447.236 0.0550805
447.593 0.0529058
448.308 0.0489389
449.022 0.0454194
449.737 0.0422825
450.451 0.0394748
451.200 0.0368383
451.949 0.0344721
452.697 0.0323409
453.446 0.0304151
454.195 0.0286687
454.943 0.0270807
455.692 0.0256326
456.441 0.0243089
457.666 0.0223757
458.891 0.0206971
460.116 0.0192194
461.341 0.0179147
462.566 0.0167594
463.791 0.0157321
465.016 0.0148153
466.242 0.0139942
467.739 0.0131031
469.236 0.0123176
470.734 0.0116227
472.231 0.0110062
473.728 0.0104571
475.226 0.00996697
476.723 0.00952843
478.220 0.00913515
480.943 0.00852379
483.665 0.00801669
486.388 0.00759513
489.110 0.00724696
491.833 0.00696222
494.555 0.00672975
497.278 0.00654129
500.000 0.00639242
502.737 0.00627906
505.475 0.00619734
508.212 0.00614367
510.949 0.00611662
513.960 0.00611654
516.971 0.00614415
519.982 0.00619915
522.993 0.00628174
526.004 0.00639005
529.015 0.00652618
532.025 0.00669015
535.036 0.00688242
538.047 0.00710663
541.058 0.00736288
544.069 0.00765480
547.080 0.00798675
550.091 0.00836024
553.102 0.00878305
556.113 0.00925985
559.124 0.00979629
562.135 0.0104053
565.146 0.0110926
568.157 0.0118733
571.168 0.0127659
574.179 0.0137827
577.189 0.0149562
578.695 0.0156068
580.200 0.0163132
581.706 0.0170713
583.211 0.0178836
584.717 0.0187672
586.222 0.0197288
587.728 0.0207742
589.233 0.0219134
590.739 0.0231574
592.244 0.0245198
593.750 0.0260158
595.255 0.0276629
596.761 0.0294830
598.266 0.0315000
599.771 0.0337440
601.277 0.0362502
602.030 0.0376144
602.782 0.0390606
603.535 0.0405960
604.288 0.0422272
605.041 0.0439628
605.793 0.0458124
606.546 0.0477854
607.299 0.0498928
608.257 0.0527911
609.215 0.0559581
610.173 0.0594228
611.131 0.0632122
612.089 0.0674082
613.047 0.0720510
614.005 0.0772032
614.963 0.0829424
615.716 0.0879239
616.468 0.0933771
617.221 0.0993654
617.974 0.105959
618.727 0.113246
619.479 0.121323
620.232 0.130311
620.608 0.135191
620.985 0.140354
621.601 0.149473
622.217 0.159525
622.832 0.170640
623.448 0.182973
624.064 0.196706
624.372 0.204157
624.680 0.212035
624.988 0.220384
625.296 0.229243
625.604 0.238663
625.912 0.248688
626.151 0.256937
626.391 0.265603
626.630 0.274717
626.870 0.284313
627.109 0.294426
627.349 0.305095
627.469 0.310654
627.588 0.316362
627.708 0.322236
627.828 0.328271
628.042 0.339489
628.149 0.345320
628.256 0.351298
628.363 0.357439
628.469 0.363738
628.576 0.370207
628.683 0.376852
628.777 0.382851
628.871 0.388990
628.910 0.391548
628.974 0.395869
629.030 0.399671
629.085 0.403527
629.141 0.407441
629.196 0.411405
629.299 0.418896
629.402 0.426588
629.504 0.434503
629.607 0.442634
629.710 0.451006
629.812 0.459610
629.915 0.468473
630.018 0.477587
630.154 0.490170
630.291 0.503250
630.428 0.516873
630.565 0.531049
630.633 0.538369
630.702 0.545832
630.770 0.553451
630.839 0.561232
630.907 0.569192
630.976 0.577311
631.044 0.585607
631.112 0.594084
631.206 0.606053
631.301 0.618390
631.395 0.631110
631.489 0.644230
631.583 0.657767
631.677 0.671737
631.771 0.686161
631.865 0.701058
631.959 0.716449
632.053 0.732355
632.147 0.748801
632.242 0.765811
632.336 0.783411
632.430 0.801630
632.524 0.820495
632.618 0.840018
632.712 0.860273
632.806 0.881274
632.900 0.903059
632.994 0.925668
633.088 0.949143
633.182 0.973528
633.277 0.998872
633.371 1.02523
633.465 1.05264
633.559 1.08119
633.653 1.11091
633.747 1.14189
633.841 1.17419
633.935 1.20790
634.029 1.24308
634.123 1.27980
634.217 1.31822
634.312 1.35842
634.406 1.40049
634.500 1.44457
634.594 1.49078
634.688 1.53926
634.782 1.59017
634.876 1.64360
634.970 1.69987
635.064 1.75909
635.158 1.82150
635.252 1.88732
635.347 1.95681
635.441 2.03025
635.535 2.10794
635.629 2.19014
635.723 2.27738
635.817 2.37001
635.911 2.46847
