Hf-177(n,g) ENDFB-8.0
Energy(eV) XS(b)
1.00000E-05 1070.96
1.03125E-05 1054.61
1.06250E-05 1038.99
1.09375E-05 1024.04
1.12500E-05 1009.71
1.15625E-05 995.974
1.18750E-05 982.782
1.21875E-05 970.101
1.25000E-05 957.898
1.28125E-05 946.144
1.31250E-05 934.812
1.34375E-05 923.879
1.37500E-05 913.320
1.43750E-05 893.244
1.50000E-05 874.437
1.56250E-05 856.770
1.62500E-05 840.132
1.68750E-05 824.428
1.75000E-05 809.572
1.81250E-05 795.491
1.87500E-05 782.121
1.93750E-05 769.403
2.00000E-05 757.286
2.09375E-05 740.137
2.18750E-05 724.104
2.28125E-05 709.069
2.37500E-05 694.933
2.46875E-05 681.611
2.56250E-05 669.026
2.65625E-05 657.114
2.75000E-05 645.816
2.84375E-05 635.082
2.93750E-05 624.865
3.03125E-05 615.127
3.12500E-05 605.830
3.21875E-05 596.942
3.31250E-05 588.434
3.40625E-05 580.280
3.50000E-05 572.455
3.59375E-05 564.939
3.68750E-05 557.712
3.78125E-05 550.755
3.87500E-05 544.052
3.96875E-05 537.587
4.06250E-05 531.348
4.25000E-05 519.495
4.43750E-05 508.402
4.62500E-05 497.990
4.81250E-05 488.193
5.00000E-05 478.952
5.15625E-05 471.639
5.31250E-05 464.652
5.46875E-05 457.966
5.62500E-05 451.560
5.78125E-05 445.417
5.93750E-05 439.517
6.09375E-05 433.846
6.25000E-05 428.388
6.40625E-05 423.132
6.56250E-05 418.064
6.71875E-05 413.175
6.87500E-05 408.453
7.18750E-05 399.475
7.50000E-05 391.064
7.81250E-05 383.163
8.12500E-05 375.723
8.43750E-05 368.699
8.75000E-05 362.056
9.06250E-05 355.759
9.37500E-05 349.779
9.68750E-05 344.092
0.000100000 338.673
0.000103125 333.502
0.000106250 328.561
0.000109375 323.834
0.000112500 319.304
0.000115625 314.960
0.000118750 310.788
0.000121875 306.778
0.000125000 302.919
0.000128125 299.203
0.000131250 295.619
0.000134375 292.162
0.000137500 288.823
0.000143750 282.475
0.000150000 276.527
0.000156250 270.941
0.000162500 265.679
0.000168750 260.713
0.000175000 256.016
0.000181250 251.563
0.000187500 247.335
0.000193750 243.313
0.000200000 239.482
0.000209375 234.059
0.000218750 228.989
0.000228125 224.235
0.000237500 219.765
0.000246875 215.552
0.000256250 211.572
0.000265625 207.806
0.000275000 204.233
0.000284375 200.839
0.000293750 197.608
0.000303125 194.529
0.000312500 191.589
0.000321875 188.778
0.000331250 186.088
0.000340625 183.509
0.000350000 181.035
0.000359375 178.659
0.000368750 176.373
0.000378125 174.173
0.000387500 172.054
0.000396875 170.010
0.000406250 168.037
0.000425000 164.289
0.000443750 160.781
0.000462500 157.489
0.000481250 154.391
0.000500000 151.469
0.000515625 149.156
0.000531250 146.947
0.000546875 144.833
0.000562500 142.808
0.000578125 140.865
0.000593750 138.999
0.000609375 137.206
0.000625000 135.480
0.000640625 133.818
0.000656250 132.216
0.000671875 130.670
0.000687500 129.177
0.000718750 126.338
0.000750000 123.679
0.000781250 121.181
0.000812500 118.828
0.000843750 116.607
0.000875000 114.507
0.000906250 112.516
0.000937500 110.625
0.000968750 108.827
0.00100000 107.114
0.00103125 105.479
0.00106250 103.917
0.00109375 102.422
0.00112500 100.990
0.00115625 99.6163
0.00118750 98.2973
0.00121875 97.0295
0.00125000 95.8094
0.00128125 94.6343
0.00131250 93.5014
0.00134375 92.4083
0.00137500 91.3527
0.00143750 89.3457
0.00150000 87.4654
0.00156250 85.6992
0.00162500 84.0358
0.00168750 82.4658
0.00175000 80.9806
0.00181250 79.5730
0.00187500 78.2363
0.00193750 76.9649
0.00200000 75.7535
0.00209375 74.0392
0.00218750 72.4364
0.00228125 70.9334
0.00237500 69.5203
0.00246875 68.1885
0.00256250 66.9305
0.00265625 65.7397
0.00275000 64.6103
0.00284375 63.5373
0.00293750 62.5161
0.00303125 61.5427
0.00312500 60.6134
0.00321875 59.7251
0.00331250 58.8747
0.00340625 58.0597
0.00350000 57.2777
0.00359375 56.5266
0.00368750 55.8042
0.00378125 55.1089
0.00387500 54.4390
0.00396875 53.7930
0.00406250 53.1695
0.00425000 51.9850
0.00443750 50.8765
0.00462500 49.8360
0.00481250 48.8570
0.00500000 47.9336
0.00515625 47.2030
0.00531250 46.5048
0.00546875 45.8368
0.00562500 45.1969
0.00578125 44.5831
0.00593750 43.9937
0.00609375 43.4271
0.00625000 42.8820
0.00640625 42.3569
0.00656250 41.8507
0.00671875 41.3623
0.00687500 40.8907
0.00718750 39.9940
0.00750000 39.1539
0.00781250 38.3648
0.00812500 37.6217
0.00843750 36.9203
0.00875000 36.2568
0.00906250 35.6279
0.00937500 35.0308
0.00968750 34.4628
0.0100000 33.9217
0.0103125 33.4055
0.0106250 32.9122
0.0109375 32.4402
0.0112500 31.9881
0.0115625 31.5545
0.0118750 31.1382
0.0121875 30.7380
0.0125000 30.3529
0.0128125 29.9821
0.0131250 29.6246
0.0134375 29.2797
0.0137500 28.9466
0.0143750 28.3134
0.0150000 27.7202
0.0156250 27.1629
0.0162500 26.6382
0.0168750 26.1428
0.0175000 25.6743
0.0181250 25.2303
0.0187500 24.8087
0.0193750 24.4077
0.0200000 24.0256
0.0206625 23.6398
0.0213250 23.2722
0.0219875 22.9213
0.0226500 22.5861
0.0233125 22.2652
0.0239750 21.9578
0.0246375 21.6629
0.0253000 21.3797
0.0264578 20.9106
0.0276156 20.4714
0.0287734 20.0592
0.0299313 19.6712
0.0310891 19.3053
0.0322469 18.9593
0.0334047 18.6316
0.0345625 18.3205
0.0355274 18.0730
0.0364922 17.8353
0.0374570 17.6069
0.0384219 17.3872
0.0393867 17.1756
0.0403516 16.9716
0.0413164 16.7749
0.0422813 16.5850
0.0442109 16.2241
0.0461406 15.8861
0.0480703 15.5689
0.0500000 15.2703
0.0515625 15.0410
0.0531250 14.8219
0.0546875 14.6124
0.0562500 14.4117
0.0578125 14.2193
0.0593750 14.0346
0.0609375 13.8572
0.0625000 13.6865
0.0640625 13.5222
0.0656250 13.3639
0.0687500 13.0636
0.0718750 12.7832
0.0750000 12.5205
0.0781250 12.2738
0.0812500 12.0417
0.0843750 11.8227
0.0875000 11.6156
0.0906250 11.4195
0.0937500 11.2333
0.0968750 11.0564
0.100000 10.8879
0.103125 10.7273
0.106250 10.5738
0.109375 10.4271
0.112500 10.2867
0.115625 10.1520
0.118750 10.0228
0.121875 9.89868
0.125000 9.77938
0.128125 9.66460
0.131250 9.55405
0.137500 9.34450
0.143750 9.14880
0.150000 8.96560
0.156250 8.79372
0.162500 8.63206
0.168750 8.47967
0.175000 8.33570
0.181250 8.19944
0.187500 8.07024
0.193750 7.94757
0.200000 7.83094
0.209375 7.66612
0.218750 7.51216
0.228125 7.36806
0.237500 7.23286
0.246875 7.10572
0.256250 6.98588
0.265625 6.87270
0.275000 6.76560
0.284375 6.66407
0.293750 6.56766
0.303125 6.47598
0.312500 6.38866
0.321875 6.30538
0.331250 6.22586
0.340625 6.14983
0.350000 6.07705
0.359375 6.00732
0.368750 5.94045
0.378125 5.87631
0.387500 5.81479
0.406250 5.69852
0.425000 5.59038
0.443750 5.48972
0.462500 5.39579
0.500000 5.22587
0.531250 5.09971
0.562500 4.98514
0.625000 4.78575
0.687500 4.61840
0.750000 4.47633
0.812500 4.35465
0.875000 4.25005
0.937500 4.15940
1.00000 4.08027
1.06250 4.01133
1.12500 3.95124
1.25000 3.85348
1.37500 3.78044
1.50000 3.72761
1.62500 3.69183
1.75000 3.67107
1.87500 3.66345
2.00000 3.66748
2.18750 3.69435
2.37500 3.74487
2.56250 3.81834
2.75000 3.91536
2.93750 4.03661
3.12500 4.18344
3.31250 4.35872
3.50000 4.56518
3.59375 4.68134
3.68750 4.80776
3.78125 4.94462
3.87500 5.09278
3.96875 5.25318
4.06250 5.42691
4.15625 5.61522
4.25000 5.81948
4.34375 6.04128
4.43750 6.28245
4.53125 6.54505
4.62500 6.83146
4.71875 7.14442
4.81250 7.48707
4.90625 7.86310
5.00000 8.27659
5.10031 8.76637
5.20061 9.31235
5.30091 9.92306
5.40122 10.6089
5.45137 10.9837
5.50152 11.3825
5.55168 11.8068
5.60183 12.2577
5.65198 12.7372
5.70213 13.2518
5.75228 13.8039
5.80244 14.3960
5.86373 15.1796
5.92503 16.0370
5.98633 16.9777
6.04762 18.0128
6.10892 19.1555
6.17022 20.4214
6.23152 21.8287
6.29281 23.3997
6.32764 24.3749
6.36247 25.4166
6.39730 26.5303
6.43212 27.7228
6.46695 29.0034
6.48437 29.6797
6.50178 30.3817
6.51919 31.1105
6.53661 31.8674
6.55402 32.6539
6.57144 33.4715
6.58188 33.9779
6.59233 34.4964
6.60278 35.0276
6.61323 35.5718
6.62368 36.1294
6.63413 36.7010
6.63935 36.9921
6.64457 37.2869
6.64980 37.5854
6.65502 37.8877
6.66060 38.2144
6.66617 38.5455
6.67174 38.8812
6.67731 39.2215
6.68289 39.5665
6.68846 39.9163
6.69403 40.2710
6.69960 40.6305
6.70727 41.1334
6.71493 41.6460
6.72259 42.1687
6.73025 42.7017
6.73652 43.1457
6.74279 43.5970
6.74906 44.0557
6.75533 44.5220
6.76299 45.1025
6.77065 45.6949
6.77448 45.9957
6.77831 46.2996
6.78214 46.6066
6.78598 46.9168
6.78981 47.2303
6.79364 47.5470
6.79747 47.8671
6.80130 48.1905
6.80513 48.5174
6.80896 48.8477
6.81279 49.1816
6.81662 49.5190
6.82046 49.8602
6.82429 50.2049
6.82812 50.5534
6.83195 50.9056
6.83578 51.2617
6.83961 51.6217
6.84344 51.9856
6.84727 52.3535
6.85389 52.9988
6.86051 53.6564
6.86382 53.9900
6.86713 54.3269
6.87374 55.0104
6.88036 55.7074
6.88698 56.4182
6.89359 57.1432
6.90021 57.8827
6.90787 58.7578
6.91554 59.6536
6.92320 60.5707
6.93086 61.5100
6.93852 62.4720
6.94618 63.4575
6.95385 64.4674
6.96151 65.5024
6.96917 66.5635
6.97683 67.6514
6.98449 68.7670
6.99216 69.9115
6.99982 71.0858
7.00748 72.2909
7.01514 73.5278
7.02281 74.7977
7.02942 75.9222
7.03604 77.0728
7.04266 78.2505
7.04927 79.4563
7.05589 80.6912
7.06251 81.9557
7.06913 83.2510
7.07574 84.5782
7.08236 85.9385
7.08898 87.3326
7.09560 88.7618
7.10221 90.2274
7.10883 91.7308
7.11545 93.2729
7.12206 94.8553
7.12868 96.4794
7.13634 98.4144
7.14401 100.409
7.15167 102.467
7.15933 104.591
7.16699 106.783
7.17465 109.047
7.18232 111.385
7.18998 113.801
7.19764 116.299
7.20530 118.882
7.21297 121.554
7.22063 124.319
7.22829 127.183
7.23595 130.148
7.24361 133.222
7.25128 136.408
7.25894 139.713
7.26660 143.142
7.27426 146.702
7.28192 150.400
7.28959 154.243
7.29725 158.238
7.30491 162.394
7.31257 166.721
7.32024 171.227
7.32790 175.921
7.33556 180.816
7.34322 185.923
7.35088 191.254
7.35855 196.824
7.36621 202.645
7.37387 208.735
7.38084 214.518
7.38780 220.550
7.39477 226.846
7.40173 233.421
7.40870 240.293
7.41566 247.478
7.42263 254.999
7.42959 262.875
7.43656 271.131
7.44353 279.790
7.45049 288.882
7.45746 298.432
7.46442 308.477
7.47139 319.049
7.47835 330.190
7.48532 341.937
7.49298 355.620
7.50064 370.162
7.50831 385.638
7.51597 402.134
7.52363 419.741
7.53129 438.565
7.53895 458.722
7.54662 480.344
7.55428 503.584
7.56194 528.604
7.56960 555.599
7.57727 584.791
7.58493 616.429
7.59259 650.806
7.60025 688.259
7.60791 729.178
7.61175 751.084
7.61558 774.030
7.61941 798.092
7.62324 823.345
7.62707 849.874
7.63090 877.770
7.63473 907.133
7.63856 938.072
7.64239 970.707
7.64622 1005.17
7.65006 1041.61
7.65389 1080.18
7.65772 1121.07
7.66155 1164.47
7.66538 1210.59
7.66921 1259.68
7.67304 1312.03
7.67687 1367.90
7.68070 1427.63
7.68454 1491.61
7.68837 1560.22
7.69220 1633.94
7.69603 1713.26
7.69986 1798.74
7.70369 1891.01
7.70752 1990.73
7.71135 2098.68
7.71518 2215.65
7.71901 2342.57
7.72285 2480.41
7.72668 2630.23
7.73051 2793.17
7.73434 2970.45
7.73817 3163.39
7.74200 3373.35
7.74583 3601.76
7.74966 3850.12
7.75349 4119.92
7.75732 4412.71
7.76116 4729.99
7.76499 5073.34
7.76882 5443.97
7.77265 5843.24
7.77648 6272.29
7.78031 6732.02
7.78414 7223.11
7.78797 7745.91
7.79180 8300.43
7.79564 8886.42
7.79947 9502.70
7.80330 10148.1
7.80713 10820.6
7.81096 11517.9
7.81479 12236.7
7.82245 13724.1
7.83778 16758.3
7.84544 18208.5
7.85310 19541.0
7.85676 20119.4
7.86041 20652.2
7.86407 21134.2
7.86773 21560.0
7.87138 21925.4
7.87504 22225.8
7.87869 22458.2
7.88235 22619.9
7.88573 22704.8
7.88910 22727.0
7.89135 22706.9
7.89501 22614.9
7.89866 22450.5
7.90232 22215.7
7.90598 21913.1
7.90963 21546.1
7.91329 21118.9
7.91694 20636.2
7.92060 20103.1
7.92629 19187.2
7.93197 18185.2
7.93765 17119.7
7.94334 16013.5
7.95448 13808.2
7.96005 12723.1
7.96563 11669.9
7.97171 10570.9
7.97778 9535.83
7.98082 9044.82
7.98386 8572.74
7.98690 8119.91
7.98994 7686.68
7.99273 7306.72
7.99551 6943.50
7.99830 6596.78
8.00109 6266.37
8.00387 5951.90
8.00666 5653.26
8.00945 5369.94
8.01223 5101.50
8.01502 4847.36
8.01780 4607.21
8.02059 4380.39
8.02338 4166.35
8.02616 3964.52
8.02895 3774.33
8.03173 3595.21
8.03452 3426.58
8.03731 3267.83
8.04009 3118.52
8.04288 2978.06
8.04567 2845.93
8.04845 2721.63
8.05124 2604.69
8.05402 2494.64
8.05681 2391.05
8.05960 2293.48
8.06238 2201.59
8.06517 2114.99
8.06795 2033.32
8.07074 1956.26
8.07353 1883.50
8.07631 1814.76
8.07910 1749.77
8.08315 1661.39
8.08720 1579.73
8.09126 1504.12
8.09531 1434.01
8.09936 1368.87
8.10341 1308.26
8.10747 1251.75
8.11152 1199.00
8.11557 1149.64
8.11962 1103.42
8.12368 1060.04
8.12773 1019.29
8.13178 980.931
8.13583 944.794
8.13989 910.687
8.14394 878.471
8.14951 836.979
8.15508 798.463
8.16066 762.627
8.16623 729.221
8.17180 698.017
8.17737 668.830
8.18294 641.479
8.18852 615.810
8.19409 591.680
8.19966 568.972
8.20523 547.572
8.21081 527.377
8.21638 508.295
8.22195 490.249
8.23309 456.964
8.24424 426.996
8.25538 399.917
8.26653 375.359
8.27767 353.018
8.28882 332.628
8.29996 313.970
8.31111 296.848
8.32225 281.099
8.33289 267.211
8.34353 254.332
8.35416 242.364
8.36480 231.222
8.37544 220.832
8.38608 211.127
8.39672 202.046
8.40735 193.539
8.41799 185.556
8.42863 178.056
8.43927 171.001
8.44991 164.355
8.46054 158.089
8.47118 152.173
8.48182 146.582
8.49246 141.294
8.50360 136.053
8.51475 131.097
8.53703 121.962
8.55932 113.746
8.58161 106.329
8.60390 99.6104
8.62619 93.5059
8.64848 87.9426
8.67077 82.8585
8.68495 79.8478
8.69914 76.9974
8.72750 71.7336
8.75587 66.9898
8.78424 62.7003
8.81261 58.8079
8.84098 55.2638
8.86934 52.0264
8.89771 49.0615
8.92000 46.9038
8.94229 44.8838
8.96458 42.9902
8.98687 41.2128
9.00916 39.5423
9.03144 37.9704
9.05373 36.4896
9.07602 35.0928
9.09831 33.7739
9.12060 32.5273
9.16518 30.2306
9.20976 28.1665
9.25433 26.3048
9.29891 24.6200
9.34349 23.0905
9.38807 21.6978
9.43265 20.4263
9.47722 19.2623
9.52180 18.1941
9.56638 17.2116
9.61096 16.3065
9.65959 15.3987
9.70822 14.5648
9.75685 13.7954
9.80548 13.0838
9.85411 12.4251
9.90274 11.8145
9.95137 11.2471
10.0000 10.7191
10.0488 10.2259
10.0977 9.76704
10.1465 9.33821
10.1953 8.93618
10.2442 8.55916
10.2930 8.20538
10.3418 7.87303
10.3906 7.56049
10.4395 7.26612
10.4883 6.98861
10.5371 6.72670
10.5859 6.47931
10.6836 6.02378
10.7813 5.61485
10.8350 5.40750
10.8887 5.21153
10.9961 4.85048
11.1035 4.52604
11.2109 4.23346
11.3184 3.96873
11.4258 3.72849
11.5332 3.50984
11.6406 3.31030
11.7481 3.12770
11.8555 2.96024
11.9629 2.80629
12.0703 2.66448
12.1777 2.53400
12.2852 2.41358
12.3926 2.30124
12.5000 2.19690
12.6074 2.09996
12.7149 2.00963
12.8223 1.92533
12.9297 1.84664
13.0371 1.77301
13.1445 1.70399
13.2520 1.63930
13.3594 1.57855
13.4668 1.52138
13.5742 1.46760
13.6817 1.41693
13.7891 1.36910
14.0039 1.28127
14.2188 1.20262
14.4141 1.13810
14.6094 1.07941
14.8047 1.02588
15.0000 0.976930
15.1563 0.940746
15.3125 0.906958
15.4688 0.875366
15.6250 0.845790
15.7813 0.818070
15.9375 0.792182
16.2500 0.744878
16.5625 0.702843
16.8750 0.665471
17.1875 0.632136
17.5000 0.602315
17.8125 0.575568
18.1250 0.551523
18.4375 0.529865
18.7500 0.510324
19.0625 0.492671
19.3750 0.476705
19.6875 0.462255
20.0000 0.449196
20.3027 0.437823
20.6054 0.427392
20.9080 0.417838
21.2107 0.409315
21.8160 0.394532
22.4214 0.382676
23.0267 0.373175
23.6321 0.365935
24.2374 0.360665
24.8428 0.357147
25.2830 0.355682
25.7233 0.355075
26.3286 0.355626
26.9339 0.357669
27.5393 0.361239
28.1446 0.366398
28.7500 0.373087
29.3553 0.381486
29.9607 0.391652
30.5660 0.403675
31.1714 0.417858
31.7767 0.434285
32.3820 0.453290
32.9874 0.475280
33.5927 0.500490
34.1981 0.529640
34.5007 0.545789
34.8034 0.563274
35.1061 0.581994
35.4088 0.602076
35.8215 0.632125
36.2342 0.665491
36.6470 0.702634
37.0597 0.744069
37.2661 0.766292
37.4724 0.790096
37.8852 0.842167
38.0915 0.870641
38.2979 0.900918
38.5043 0.933149
38.7106 0.967501
39.0133 1.02212
39.3160 1.08238
39.6187 1.14907
39.9213 1.22314
40.2240 1.30570
40.5267 1.39809
40.6780 1.44847
40.8293 1.50194
40.9807 1.55876
41.1320 1.61921
41.3177 1.69884
41.5035 1.78508
41.6892 1.87868
41.8749 1.98043
42.0607 2.09092
42.1535 2.15002
42.2464 2.21199
42.3393 2.27690
42.4321 2.34487
42.5250 2.41615
42.5714 2.45310
42.6179 2.49097
42.6695 2.53417
42.7210 2.57858
42.7726 2.62423
42.8242 2.67118
42.8758 2.71948
42.9016 2.74415
42.9274 2.76917
42.9532 2.79457
42.9790 2.82033
43.0048 2.84647
43.0306 2.87300
43.0684 2.91263
43.1063 2.95312
43.1441 2.99451
43.1819 3.03682
43.2198 3.08009
43.2576 3.12433
43.2954 3.16958
43.3333 3.21587
43.3711 3.26324
43.3900 3.28734
43.4089 3.31172
43.4279 3.33638
43.4468 3.36134
43.4657 3.38659
43.4846 3.41212
43.5018 3.43562
43.5190 3.45935
43.5310 3.47612
43.5431 3.49303
43.5671 3.52721
43.5895 3.55944
43.6119 3.59214
43.6342 3.62531
43.6566 3.65894
43.6789 3.69308
43.7013 3.72771
43.7236 3.76286
43.7460 3.79852
43.7649 3.82912
43.7838 3.86011
43.8028 3.89149
43.8217 3.92325
43.8406 3.95544
43.8595 3.98804
43.8784 4.02107
43.8973 4.05450
43.9163 4.08839
43.9352 4.12272
43.9541 4.15750
43.9730 4.19272
43.9919 4.22843
44.0108 4.26460
44.0298 4.30127
44.0487 4.33842
44.0676 4.37608
44.0865 4.41426
44.1054 4.45296
44.1243 4.49217
44.1433 4.53194
44.1622 4.57226
44.1811 4.61314
44.2000 4.65457
44.2189 4.69660
44.2378 4.73923
44.2568 4.78246
44.2757 4.82628
44.2946 4.87075
44.3135 4.91586
44.3324 4.96163
44.3513 5.00803
44.3892 5.10293
44.4270 5.20062
44.4648 5.30124
44.5027 5.40491
44.5405 5.51178
44.5783 5.62193
44.6162 5.73552
44.6540 5.85270
44.6918 5.97365
44.7297 6.09847
44.7675 6.22740
44.8053 6.36056
44.8432 6.49819
44.8810 6.64044
44.9189 6.78758
44.9567 6.93976
44.9945 7.09731
45.0324 7.26039
45.0702 7.42935
45.1080 7.60440
45.1459 7.78591
45.1837 7.97413
45.2215 8.16942
45.2594 8.37217
45.2972 8.58280
45.3350 8.80161
45.3729 9.02917
45.4107 9.26581
45.4485 9.51216
45.4864 9.76863
45.5242 10.0358
45.5620 10.3144
45.5999 10.6051
45.6377 10.9084
45.6755 11.2253
45.7134 11.5564
45.7512 11.9028
45.7890 12.2652
45.8269 12.6447
45.8647 13.0425
45.9025 13.4599
45.9404 13.8978
45.9782 14.3580
46.0160 14.8418
46.0539 15.3510
46.0917 15.8872
46.1295 16.4527
46.1674 17.0492
46.2052 17.6796
46.2430 18.3460
46.2809 19.0516
46.3187 19.7993
46.3566 20.5927
46.3944 21.4354
46.4322 22.3318
46.4700 23.2865
46.5079 24.3050
46.5457 25.3926
46.5836 26.5564
46.6214 27.8030
46.6592 29.1413
46.6971 30.5796
46.7349 32.1289
46.7727 33.8008
46.8106 35.6093
46.8484 37.5688
46.8862 39.6977
46.9241 42.0153
46.9430 43.2525
46.9619 44.5460
46.9808 45.8993
46.9997 47.3155
47.0186 48.8002
47.0376 50.3561
47.0565 51.9898
47.0754 53.7047
47.0943 55.5084
47.1132 57.4059
47.1321 59.4042
47.1511 61.5094
47.1700 63.7317
47.1889 66.0788
47.2078 68.5604
47.2267 71.1856
47.2456 73.9690
47.2646 76.9221
47.2835 80.0592
47.3024 83.3945
47.3213 86.9492
47.3402 90.7413
47.3592 94.7930
47.3781 99.1268
47.3987 104.214
47.4193 109.715
47.4400 115.676
47.4606 122.149
47.4813 129.202
47.5019 136.903
47.5225 145.343
47.5432 154.617
47.5621 163.958
47.5810 174.213
47.5999 185.508
47.6094 191.594
47.6188 197.992
47.6283 204.742
47.6377 211.862
47.6472 219.383
47.6567 227.328
47.6661 235.749
47.6756 244.678
47.6850 254.159
47.6945 264.230
47.7039 274.967
47.7134 286.421
47.7229 298.661
47.7323 311.761
47.7418 325.808
47.7512 340.898
47.7607 357.136
47.7702 374.624
47.7796 393.532
47.7891 413.992
47.7985 436.169
47.8080 460.249
47.8175 486.436
47.8269 514.957
47.8364 546.062
47.8458 579.986
47.8514 601.516
47.8570 624.212
47.8626 648.145
47.8682 673.385
47.8738 700.008
47.8794 728.092
47.8850 757.718
47.8905 788.970
47.8961 821.933
47.9017 856.696
47.9073 893.349
47.9129 931.986
47.9185 972.699
47.9241 1015.58
47.9297 1060.73
47.9353 1108.15
47.9447 1194.19
47.9542 1287.69
47.9636 1389.09
47.9731 1498.64
47.9825 1616.93
47.9920 1744.11
48.0015 1880.39
48.0109 2025.70
48.0204 2180.37
48.0298 2344.10
48.0393 2516.64
48.0488 2697.56
48.0582 2886.28
48.0677 3082.04
48.0866 3490.53
48.1382 4641.89
48.1571 5036.19
48.1666 5219.24
48.1760 5389.97
48.1919 5643.73
48.1998 5752.98
48.2077 5849.23
48.2156 5931.72
48.2235 5999.50
48.2315 6052.07
48.2394 6088.95
48.2467 6108.76
48.2540 6114.75
48.2619 6105.59
48.2699 6080.24
48.2778 6038.95
48.2857 5982.10
48.2936 5910.12
48.3015 5823.84
48.3095 5723.97
48.3174 5611.38
48.3257 5479.99
48.3341 5336.97
48.3508 5020.74
48.3675 4673.77
48.3841 4307.56
48.4200 3504.51
48.4379 3116.93
48.4469 2930.60
48.4558 2750.39
48.4648 2576.97
48.4737 2410.88
48.4827 2252.51
48.4916 2102.32
48.5006 1960.13
48.5096 1826.16
48.5185 1700.38
48.5275 1582.79
48.5373 1463.28
